# Acquired on 30/01/2024 09:45:44 
# SPIDER: Creep_10mm_HM077x145x38AA-2
# CREEP MEASUREMENT

# time [ms]		force [N]		stiffness [N/mm]
0.000			-59.435			-5.943
103.000			-60.033			-6.003
205.000			-60.020			-6.002
304.000			-59.790			-5.979
403.000			-59.637			-5.964
505.000			-59.521			-5.952
604.000			-59.423			-5.942
704.000			-59.259			-5.926
805.000			-59.190			-5.919
904.000			-59.126			-5.913
1004.000			-59.066			-5.907
1104.000			-59.012			-5.901
1204.000			-58.962			-5.896
1304.000			-58.914			-5.891
1405.000			-58.828			-5.883
1504.000			-58.786			-5.879
1603.000			-58.747			-5.875
1705.000			-58.712			-5.871
1804.000			-58.678			-5.868
1904.000			-58.644			-5.864
2005.000			-58.611			-5.861
2104.000			-58.579			-5.858
2204.000			-58.520			-5.852
2303.000			-58.493			-5.849
2404.000			-58.465			-5.847
2505.000			-58.440			-5.844
2604.000			-58.415			-5.842
2704.000			-58.391			-5.839
2805.000			-58.367			-5.837
2904.000			-58.322			-5.832
3003.000			-58.301			-5.830
3105.000			-58.280			-5.828
3204.000			-58.259			-5.826
3304.000			-58.239			-5.824
3405.000			-58.219			-5.822
3503.000			-58.199			-5.820
3604.000			-58.164			-5.816
3705.000			-58.146			-5.815
3804.000			-58.129			-5.813
3904.000			-58.112			-5.811
4005.000			-58.092			-5.809
4104.000			-58.072			-5.807
4203.000			-58.055			-5.806
4305.000			-58.025			-5.802
4404.000			-58.009			-5.801
4504.000			-57.994			-5.799
4605.000			-57.979			-5.798
4704.000			-57.965			-5.796
4804.000			-57.951			-5.795
4904.000			-57.936			-5.794
5004.000			-57.923			-5.792
5104.000			-57.895			-5.789
5205.000			-57.883			-5.788
5304.000			-57.870			-5.787
5403.000			-57.857			-5.786
5505.000			-57.844			-5.784
5604.000			-57.832			-5.783
5705.000			-57.820			-5.782
5804.000			-57.797			-5.780
5904.000			-57.785			-5.779
6005.000			-57.774			-5.777
6103.000			-57.762			-5.776
6204.000			-57.751			-5.775
6305.000			-57.740			-5.774
6404.000			-57.729			-5.773
6504.000			-57.709			-5.771
6605.000			-57.697			-5.770
6704.000			-57.686			-5.769
6803.000			-57.676			-5.768
6905.000			-57.667			-5.767
7004.000			-57.657			-5.766
7104.000			-57.647			-5.765
7205.000			-57.636			-5.764
7304.000			-57.617			-5.762
7404.000			-57.608			-5.761
7504.000			-57.599			-5.760
7604.000			-57.589			-5.759
7704.000			-57.580			-5.758
7805.000			-57.571			-5.757
7904.000			-57.563			-5.756
8004.000			-57.544			-5.754
8105.000			-57.536			-5.754
8203.000			-57.528			-5.753
8304.000			-57.519			-5.752
8405.000			-57.511			-5.751
8504.000			-57.501			-5.750
8604.000			-57.493			-5.749
8704.000			15.763			1.576
8879.000			-57.461			-5.746
8967.000			-57.454			-5.745
9055.000			-57.446			-5.745
9143.000			-57.438			-5.744
9231.000			-57.430			-5.743
9319.000			-57.421			-5.742
9407.000			-57.414			-5.741
9504.000			-57.407			-5.741
9604.000			-57.400			-5.740
9703.000			-57.392			-5.739
9805.000			-57.385			-5.739
9904.000			-57.379			-5.738
10004.000			-57.372			-5.737
10105.000			-57.365			-5.736
10203.000			-57.351			-5.735
10304.000			-57.344			-5.734
10405.000			-57.336			-5.734
10504.000			-57.329			-5.733
10604.000			-57.323			-5.732
10705.000			-57.316			-5.732
10804.000			-57.310			-5.731
10903.000			-57.296			-5.730
11005.000			-57.290			-5.729
11104.000			-57.283			-5.728
11204.000			-57.277			-5.728
11305.000			-57.270			-5.727
11404.000			-57.263			-5.726
11504.000			-57.257			-5.726
11604.000			-57.251			-5.725
11704.000			-57.239			-5.724
11804.000			-57.232			-5.723
11904.000			-57.226			-5.723
12004.000			-57.220			-5.722
12105.000			-57.213			-5.721
12204.000			-57.207			-5.721
12303.000			-57.202			-5.720
12405.000			-57.191			-5.719
12504.000			-57.185			-5.719
12604.000			-57.180			-5.718
12705.000			-57.175			-5.717
12804.000			-57.168			-5.717
12904.000			-57.162			-5.716
13004.000			-57.157			-5.716
13104.000			-57.146			-5.715
13204.000			-57.140			-5.714
13305.000			-57.134			-5.713
13404.000			-57.128			-5.713
13504.000			-57.124			-5.712
13605.000			-57.118			-5.712
13703.000			-57.113			-5.711
13804.000			-57.107			-5.711
13905.000			-57.097			-5.710
14004.000			-57.092			-5.709
14104.000			-57.086			-5.709
14204.000			-57.081			-5.708
14304.000			-57.076			-5.708
14404.000			-57.072			-5.707
14505.000			-57.067			-5.707
14604.000			-57.056			-5.706
14704.000			-57.052			-5.705
14805.000			-57.047			-5.705
14903.000			-57.042			-5.704
15004.000			-57.036			-5.704
15105.000			-57.032			-5.703
15204.000			-57.026			-5.703
15305.000			-57.017			-5.702
15404.000			-57.011			-5.701
15504.000			-57.007			-5.701
15604.000			-57.002			-5.700
15704.000			-56.998			-5.700
15804.000			-56.993			-5.699
15905.000			-56.988			-5.699
16004.000			-56.983			-5.698
16104.000			-56.975			-5.697
16205.000			-56.970			-5.697
16303.000			-56.966			-5.697
16404.000			-56.961			-5.696
16505.000			-56.957			-5.696
16604.000			-56.952			-5.695
16704.000			-56.947			-5.695
16805.000			-56.939			-5.694
16904.000			-56.934			-5.693
17003.000			-56.930			-5.693
17105.000			-56.925			-5.693
17204.000			-56.920			-5.692
17304.000			-56.917			-5.692
17405.000			-56.914			-5.691
17504.000			-56.905			-5.690
17604.000			-56.900			-5.690
17704.000			-56.896			-5.690
17804.000			-56.892			-5.689
17903.000			-56.888			-5.689
18005.000			-56.884			-5.688
18104.000			-56.879			-5.688
18204.000			-56.870			-5.687
18305.000			-56.866			-5.687
18404.000			-56.861			-5.686
18505.000			-56.858			-5.686
18603.000			-56.854			-5.685
18704.000			-56.851			-5.685
18805.000			-56.846			-5.685
18904.000			-56.842			-5.684
19004.000			-56.833			-5.683
19105.000			-56.829			-5.683
19204.000			-56.825			-5.683
19303.000			-56.823			-5.682
19405.000			-56.818			-5.682
19504.000			-56.816			-5.682
19604.000			-56.812			-5.681
19705.000			-56.803			-5.680
19804.000			-56.799			-5.680
19904.000			-56.797			-5.680
20004.000			-56.792			-5.679
20104.000			-56.788			-5.679
20204.000			-56.784			-5.678
20305.000			-56.780			-5.678
20404.000			-56.773			-5.677
20504.000			-56.770			-5.677
20605.000			-56.767			-5.677
20703.000			-56.763			-5.676
20804.000			-56.759			-5.676
20905.000			-56.756			-5.676
21004.000			-56.752			-5.675
21104.000			-56.748			-5.675
21205.000			-56.742			-5.674
21304.000			-56.738			-5.674
21403.000			-56.733			-5.673
21505.000			-56.730			-5.673
21604.000			-56.727			-5.673
21705.000			-56.722			-5.672
21804.000			-56.719			-5.672
21904.000			-56.713			-5.671
22005.000			-56.709			-5.671
22103.000			-56.706			-5.671
22204.000			-56.703			-5.670
22305.000			-56.700			-5.670
22404.000			-56.696			-5.670
22504.000			-56.693			-5.669
22605.000			-56.685			-5.669
22704.000			-56.682			-5.668
22803.000			-56.678			-5.668
22905.000			-56.675			-5.667
23004.000			-56.672			-5.667
23104.000			-56.670			-5.667
23205.000			-56.666			-5.667
23304.000			-56.658			-5.666
23404.000			-56.656			-5.666
23504.000			-56.653			-5.665
23604.000			-56.650			-5.665
23704.000			-56.645			-5.665
23805.000			-56.643			-5.664
23904.000			-56.639			-5.664
24004.000			-56.637			-5.664
24105.000			-56.630			-5.663
24203.000			-56.627			-5.663
24304.000			-56.625			-5.662
24405.000			-56.621			-5.662
24504.000			-56.618			-5.662
24604.000			-56.616			-5.662
24704.000			-56.612			-5.661
24804.000			-56.607			-5.661
24903.000			-56.604			-5.660
25004.000			-56.601			-5.660
25104.000			-56.598			-5.660
25205.000			-56.595			-5.659
25304.000			-56.591			-5.659
25404.000			-56.588			-5.659
25505.000			-56.581			-5.658
25603.000			-56.578			-5.658
25704.000			-56.576			-5.658
25805.000			-56.574			-5.657
25904.000			-56.569			-5.657
26004.000			-56.566			-5.657
26105.000			-56.563			-5.656
26204.000			-56.561			-5.656
26303.000			-56.556			-5.656
26405.000			-56.553			-5.655
26504.000			-56.550			-5.655
26604.000			-56.547			-5.655
26705.000			-56.544			-5.654
26804.000			-56.541			-5.654
26904.000			-56.537			-5.654
27004.000			-56.532			-5.653
27104.000			-56.530			-5.653
27204.000			-56.527			-5.653
27305.000			-56.525			-5.652
27404.000			-56.522			-5.652
27504.000			-56.518			-5.652
27605.000			-56.516			-5.652
27703.000			-56.511			-5.651
27804.000			-56.509			-5.651
27905.000			-56.505			-5.651
28004.000			-56.501			-5.650
28105.000			-56.498			-5.650
28204.000			-56.495			-5.650
28304.000			-56.493			-5.649
28404.000			-56.491			-5.649
28504.000			-56.485			-5.649
28604.000			-56.482			-5.648
28705.000			-56.479			-5.648
28804.000			-56.477			-5.648
28904.000			-56.475			-5.648
29005.000			-56.472			-5.647
29103.000			-56.470			-5.647
29204.000			-56.464			-5.646
29305.000			-56.461			-5.646
29404.000			-56.459			-5.646
29504.000			-56.456			-5.646
29605.000			-56.453			-5.645
29704.000			-56.451			-5.645
29803.000			-56.448			-5.645
29905.000			-56.443			-5.644
30004.000			-56.441			-5.644
30104.000			-56.437			-5.644
30205.000			-56.435			-5.643
30304.000			-56.434			-5.643
30404.000			-56.432			-5.643
30504.000			-56.428			-5.643
30604.000			-56.422			-5.642
30704.000			-56.419			-5.642
30805.000			-56.416			-5.642
30904.000			-56.414			-5.641
31004.000			-56.413			-5.641
31105.000			-56.410			-5.641
31204.000			-56.407			-5.641
31305.000			-56.404			-5.640
31404.000			-56.401			-5.640
31504.000			-56.398			-5.640
31605.000			-56.395			-5.639
31703.000			-56.393			-5.639
31804.000			-56.390			-5.639
31904.000			-56.389			-5.639
32004.000			-56.386			-5.639
32104.000			-56.381			-5.638
32205.000			-56.378			-5.638
32304.000			-56.376			-5.638
32403.000			-56.373			-5.637
32505.000			-56.371			-5.637
32604.000			-56.369			-5.637
32704.000			-56.366			-5.637
32805.000			-56.362			-5.636
32904.000			-56.360			-5.636
33004.000			-56.357			-5.636
33104.000			-56.355			-5.635
33204.000			-56.353			-5.635
33304.000			-56.351			-5.635
33405.000			-56.348			-5.635
33504.000			-56.346			-5.635
33604.000			-56.341			-5.634
33705.000			-56.338			-5.634
33803.000			-56.336			-5.634
33904.000			-56.334			-5.633
34005.000			-56.331			-5.633
34104.000			-56.328			-5.633
34204.000			-56.325			-5.633
34304.000			-56.321			-5.632
34404.000			-56.319			-5.632
34503.000			-56.317			-5.632
34604.000			-56.316			-5.632
34704.000			-56.314			-5.631
34805.000			-56.312			-5.631
34904.000			-56.309			-5.631
35004.000			-56.304			-5.630
35105.000			-56.302			-5.630
35203.000			-56.301			-5.630
35304.000			-56.298			-5.630
35405.000			-56.295			-5.630
35504.000			-56.293			-5.629
35604.000			-56.291			-5.629
35704.000			-56.289			-5.629
35804.000			-56.284			-5.628
35903.000			-56.283			-5.628
36005.000			-56.281			-5.628
36104.000			-56.279			-5.628
36204.000			-56.276			-5.628
36305.000			-56.273			-5.627
36404.000			-56.272			-5.627
36504.000			-56.268			-5.627
36604.000			-56.265			-5.627
36704.000			-56.263			-5.626
36804.000			-56.261			-5.626
36905.000			-56.259			-5.626
37004.000			-56.256			-5.626
37103.000			-56.255			-5.625
37205.000			-56.251			-5.625
37304.000			-56.249			-5.625
37404.000			-56.247			-5.625
37505.000			-56.245			-5.624
37604.000			-56.242			-5.624
37705.000			-56.240			-5.624
37804.000			-56.239			-5.624
37904.000			-56.234			-5.623
38004.000			-56.232			-5.623
38104.000			-56.229			-5.623
38204.000			-56.227			-5.623
38305.000			-56.227			-5.623
38404.000			-56.224			-5.622
38503.000			-56.222			-5.622
38605.000			-56.220			-5.622
38704.000			-56.215			-5.622
38804.000			-56.213			-5.621
38905.000			-56.211			-5.621
39004.000			-56.210			-5.621
39104.000			-56.208			-5.621
39204.000			-56.205			-5.621
39304.000			-56.203			-5.620
39404.000			-56.199			-5.620
39505.000			-56.198			-5.620
39604.000			-56.197			-5.620
39704.000			-56.194			-5.619
39805.000			-56.191			-5.619
39903.000			-56.189			-5.619
40004.000			-56.188			-5.619
40105.000			-56.183			-5.618
40204.000			-56.182			-5.618
40304.000			-56.180			-5.618
40405.000			-56.178			-5.618
40504.000			-56.177			-5.618
40603.000			-56.174			-5.617
40705.000			-56.171			-5.617
40804.000			-56.169			-5.617
40905.000			-56.166			-5.617
41004.000			-56.164			-5.616
41104.000			-56.162			-5.616
41205.000			-56.160			-5.616
41303.000			-56.160			-5.616
41404.000			-56.157			-5.616
41505.000			-56.154			-5.615
41604.000			-56.152			-5.615
41704.000			-56.150			-5.615
41804.000			-56.148			-5.615
41904.000			-56.146			-5.615
42003.000			-56.143			-5.614
42105.000			-56.142			-5.614
42204.000			-56.140			-5.614
42304.000			-56.136			-5.614
42405.000			-56.135			-5.613
42503.000			-56.133			-5.613
42604.000			-56.131			-5.613
42705.000			-56.129			-5.613
42804.000			-56.127			-5.613
42904.000			-56.124			-5.612
43005.000			-56.122			-5.612
43104.000			-56.120			-5.612
43203.000			-56.118			-5.612
43305.000			-56.115			-5.612
43404.000			-56.113			-5.611
43504.000			-56.112			-5.611
43605.000			-56.111			-5.611
43704.000			-56.109			-5.611
43804.000			-56.106			-5.611
43903.000			-56.104			-5.610
44004.000			-56.102			-5.610
44105.000			-56.100			-5.610
44204.000			-56.100			-5.610
44304.000			-56.097			-5.610
44405.000			-56.094			-5.609
44504.000			-56.090			-5.609
44603.000			-56.089			-5.609
44705.000			-56.088			-5.609
44804.000			-56.086			-5.609
44904.000			-56.084			-5.608
45005.000			-56.081			-5.608
45104.000			-56.080			-5.608
45204.000			-56.077			-5.608
45304.000			-56.075			-5.608
45404.000			-56.074			-5.607
45504.000			-56.072			-5.607
45605.000			-56.070			-5.607
45704.000			-56.069			-5.607
45804.000			-56.067			-5.607
45905.000			-56.064			-5.606
46003.000			-56.060			-5.606
46104.000			-56.059			-5.606
46205.000			-56.057			-5.606
46304.000			-56.055			-5.606
46404.000			-56.054			-5.605
46504.000			-56.053			-5.605
46604.000			-56.051			-5.605
46703.000			-56.048			-5.605
46805.000			-56.046			-5.605
46904.000			-56.045			-5.604
47004.000			-56.043			-5.604
47105.000			-56.041			-5.604
47203.000			-56.040			-5.604
47305.000			-56.038			-5.604
47404.000			-56.033			-5.603
47504.000			-56.032			-5.603
47605.000			-56.031			-5.603
47704.000			-56.029			-5.603
47804.000			-56.027			-5.603
47904.000			-56.026			-5.603
48004.000			-56.022			-5.602
48104.000			-56.021			-5.602
48205.000			-56.018			-5.602
48304.000			-56.016			-5.602
48404.000			-56.015			-5.601
48505.000			-56.013			-5.601
48603.000			-56.011			-5.601
48704.000			-56.010			-5.601
48805.000			-56.008			-5.601
48904.000			-56.005			-5.601
49004.000			-56.003			-5.600
49105.000			-56.002			-5.600
49204.000			-56.000			-5.600
49303.000			-56.000			-5.600
49405.000			-55.998			-5.600
49504.000			-55.996			-5.600
49604.000			-55.991			-5.599
49705.000			-55.989			-5.599
49804.000			-55.989			-5.599
49904.000			-55.987			-5.599
50004.000			-55.986			-5.599
50104.000			-55.983			-5.598
50204.000			-55.982			-5.598
50304.000			-55.981			-5.598
50404.000			-55.977			-5.598
50505.000			-55.976			-5.598
50604.000			-55.974			-5.597
50703.000			-55.973			-5.597
50805.000			-55.971			-5.597
50904.000			-55.969			-5.597
51004.000			-55.968			-5.597
51105.000			-55.966			-5.597
51204.000			-55.964			-5.596
51304.000			-55.961			-5.596
51404.000			-55.959			-5.596
51504.000			-55.958			-5.596
51604.000			-55.956			-5.596
51705.000			-55.955			-5.596
51804.000			-55.952			-5.595
51904.000			-55.950			-5.595
52005.000			-55.949			-5.595
52103.000			-55.949			-5.595
52204.000			-55.947			-5.595
52305.000			-55.945			-5.595
52404.000			-55.943			-5.594
52504.000			-55.939			-5.594
52605.000			-55.938			-5.594
52704.000			-55.938			-5.594
52803.000			-55.937			-5.594
52905.000			-55.933			-5.593
53004.000			-55.932			-5.593
53104.000			-55.933			-5.593
53205.000			-55.931			-5.593
53304.000			-55.927			-5.593
53404.000			-55.925			-5.593
53503.000			-55.923			-5.592
53604.000			-55.922			-5.592
53705.000			-55.922			-5.592
53804.000			-55.921			-5.592
53904.000			-55.919			-5.592
54005.000			-55.916			-5.592
54104.000			-55.914			-5.591
54203.000			-55.912			-5.591
54305.000			-55.910			-5.591
54404.000			-55.908			-5.591
54504.000			-55.907			-5.591
54605.000			-55.906			-5.591
54704.000			-55.903			-5.590
54804.000			-55.900			-5.590
54904.000			-55.900			-5.590
55004.000			-55.899			-5.590
55104.000			-55.897			-5.590
55205.000			-55.895			-5.589
55304.000			-55.894			-5.589
55404.000			-55.893			-5.589
55505.000			-55.890			-5.589
55603.000			-55.889			-5.589
55704.000			-55.887			-5.589
55805.000			-55.886			-5.589
55904.000			-55.884			-5.588
56004.000			-55.883			-5.588
56105.000			-55.882			-5.588
56204.000			-55.878			-5.588
56303.000			-55.876			-5.588
56405.000			-55.874			-5.587
56504.000			-55.874			-5.587
56604.000			-55.872			-5.587
56705.000			-55.871			-5.587
56804.000			-55.869			-5.587
56905.000			-55.866			-5.587
57003.000			-55.865			-5.587
57104.000			-55.865			-5.586
57205.000			-55.863			-5.586
57304.000			-55.861			-5.586
57404.000			-55.859			-5.586
57505.000			-55.858			-5.586
57604.000			-55.856			-5.586
57703.000			-55.854			-5.585
57805.000			-55.853			-5.585
57904.000			-55.851			-5.585
58004.000			-55.850			-5.585
58105.000			-55.849			-5.585
58204.000			-55.848			-5.585
58304.000			-55.847			-5.585
58404.000			-55.843			-5.584
58504.000			-55.843			-5.584
58604.000			-55.841			-5.584
58705.000			-55.839			-5.584
58804.000			-55.838			-5.584
58904.000			-55.838			-5.584
59005.000			-55.835			-5.584
59104.000			-55.831			-5.583
59204.000			-55.831			-5.583
59304.000			-55.829			-5.583
59404.000			-55.829			-5.583
59504.000			-55.827			-5.583
59605.000			-55.825			-5.582
59704.000			-55.824			-5.582
59803.000			-55.821			-5.582
59905.000			-55.820			-5.582
60004.000			-55.819			-5.582
60105.000			-55.817			-5.582
60204.000			-55.815			-5.582
60304.000			-55.814			-5.581
60405.000			-55.813			-5.581
60503.000			-55.812			-5.581
60604.000			-55.810			-5.581
60705.000			-55.809			-5.581
60804.000			-55.808			-5.581
60904.000			-55.805			-5.581
61005.000			-55.804			-5.580
61104.000			-55.802			-5.580
61203.000			-55.800			-5.580
61305.000			-55.799			-5.580
61404.000			-55.797			-5.580
61504.000			-55.795			-5.580
61605.000			-55.795			-5.579
61704.000			-55.795			-5.579
61804.000			-55.793			-5.579
61904.000			-55.792			-5.579
62004.000			-55.789			-5.579
62104.000			-55.787			-5.579
62205.000			-55.786			-5.579
62304.000			-55.784			-5.578
62404.000			-55.783			-5.578
62505.000			-55.782			-5.578
62603.000			-55.779			-5.578
62704.000			-55.777			-5.578
62805.000			-55.777			-5.578
62904.000			-55.776			-5.578
63004.000			-55.774			-5.577
63104.000			-55.773			-5.577
63204.000			-55.771			-5.577
63303.000			-55.770			-5.577
63404.000			-55.768			-5.577
63504.000			-55.765			-5.577
63605.000			-55.763			-5.576
63704.000			-55.762			-5.576
63804.000			-55.762			-5.576
63905.000			-55.762			-5.576
64003.000			-55.761			-5.576
64104.000			-55.760			-5.576
64205.000			-55.756			-5.576
64304.000			-55.754			-5.575
64404.000			-55.753			-5.575
64505.000			-55.753			-5.575
64604.000			-55.752			-5.575
64703.000			-55.750			-5.575
64805.000			-55.747			-5.575
64904.000			-55.747			-5.575
65004.000			-55.745			-5.575
65105.000			-55.744			-5.574
65204.000			-55.742			-5.574
65304.000			-55.740			-5.574
65404.000			-55.738			-5.574
65504.000			-55.738			-5.574
65604.000			-55.737			-5.574
65705.000			-55.734			-5.573
65804.000			-55.733			-5.573
65904.000			-55.731			-5.573
66005.000			-55.730			-5.573
66104.000			-55.730			-5.573
66204.000			-55.729			-5.573
66305.000			-55.728			-5.573
66404.000			-55.724			-5.572
66505.000			-55.724			-5.572
66604.000			-55.723			-5.572
66704.000			-55.721			-5.572
66805.000			-55.720			-5.572
66904.000			-55.719			-5.572
67003.000			-55.718			-5.572
67105.000			-55.715			-5.572
67204.000			-55.714			-5.571
67304.000			-55.714			-5.571
67405.000			-55.712			-5.571
67504.000			-55.710			-5.571
67604.000			-55.708			-5.571
67704.000			-55.707			-5.571
67804.000			-55.707			-5.571
67904.000			-55.704			-5.570
68005.000			-55.703			-5.570
68104.000			-55.702			-5.570
68204.000			-55.699			-5.570
68305.000			-55.699			-5.570
68403.000			-55.697			-5.570
68504.000			-55.697			-5.570
68605.000			-55.694			-5.569
68704.000			-55.692			-5.569
68804.000			-55.691			-5.569
68905.000			-55.690			-5.569
69004.000			-55.689			-5.569
69103.000			-55.688			-5.569
69205.000			-55.687			-5.569
69304.000			-55.685			-5.569
69404.000			-55.684			-5.568
69505.000			-55.683			-5.568
69604.000			-55.681			-5.568
69705.000			-55.680			-5.568
69804.000			-55.679			-5.568
69904.000			-55.678			-5.568
70004.000			-55.675			-5.568
70104.000			-55.674			-5.567
70204.000			-55.673			-5.567
70305.000			-55.671			-5.567
70404.000			-55.669			-5.567
70504.000			-55.669			-5.567
70605.000			-55.669			-5.567
70703.000			-55.668			-5.567
70804.000			-55.664			-5.566
70905.000			-55.663			-5.566
71004.000			-55.663			-5.566
71104.000			-55.661			-5.566
71205.000			-55.660			-5.566
71304.000			-55.659			-5.566
71403.000			-55.658			-5.566
71505.000			-55.657			-5.566
71604.000			-55.654			-5.565
71704.000			-55.653			-5.565
71805.000			-55.652			-5.565
71904.000			-55.651			-5.565
72004.000			-55.649			-5.565
72104.000			-55.647			-5.565
72204.000			-55.645			-5.565
72304.000			-55.644			-5.564
72405.000			-55.643			-5.564
72504.000			-55.641			-5.564
72604.000			-55.640			-5.564
72705.000			-55.641			-5.564
72803.000			-55.641			-5.564
72905.000			-55.638			-5.564
73004.000			-55.637			-5.564
73104.000			-55.635			-5.564
73205.000			-55.633			-5.563
73304.000			-55.632			-5.563
73404.000			-55.632			-5.563
73504.000			-55.631			-5.563
73604.000			-55.630			-5.563
73704.000			-55.627			-5.563
73805.000			-55.627			-5.563
73904.000			-55.626			-5.563
74004.000			-55.624			-5.562
74105.000			-55.623			-5.562
74203.000			-55.621			-5.562
74304.000			-55.619			-5.562
74405.000			-55.618			-5.562
74504.000			-55.617			-5.562
74604.000			-55.615			-5.562
74705.000			-55.614			-5.561
74804.000			-55.614			-5.561
74903.000			-55.614			-5.561
75005.000			-55.612			-5.561
75104.000			-55.609			-5.561
75204.000			-55.608			-5.561
75305.000			-55.608			-5.561
75404.000			-55.607			-5.561
75504.000			-55.605			-5.561
75604.000			-55.604			-5.560
75704.000			-55.603			-5.560
75804.000			-55.602			-5.560
75904.000			-55.600			-5.560
76004.000			-55.599			-5.560
76105.000			-55.598			-5.560
76204.000			-55.596			-5.560
76303.000			-55.596			-5.560
76405.000			-55.594			-5.559
76504.000			-55.593			-5.559
76604.000			-55.590			-5.559
76705.000			-55.589			-5.559
76804.000			-55.588			-5.559
76904.000			-55.587			-5.559
77004.000			-55.586			-5.559
77104.000			-55.585			-5.559
77204.000			-55.584			-5.558
77305.000			-55.582			-5.558
77404.000			-55.581			-5.558
77504.000			-55.579			-5.558
77605.000			-55.579			-5.558
77704.000			-55.578			-5.558
77804.000			-55.577			-5.558
77904.000			-55.576			-5.558
78004.000			-55.575			-5.558
78104.000			-55.573			-5.557
78205.000			-55.572			-5.557
78304.000			-55.569			-5.557
78404.000			-55.569			-5.557
78505.000			-55.567			-5.557
78603.000			-55.567			-5.557
78704.000			-55.567			-5.557
78805.000			-55.564			-5.556
78904.000			-55.563			-5.556
79004.000			-55.562			-5.556
79104.000			-55.562			-5.556
79204.000			-55.561			-5.556
79303.000			-55.560			-5.556
79404.000			-55.558			-5.556
79504.000			-55.556			-5.556
79605.000			-55.555			-5.556
79704.000			-55.554			-5.555
79804.000			-55.553			-5.555
79905.000			-55.551			-5.555
80004.000			-55.550			-5.555
80104.000			-55.550			-5.555
80204.000			-55.549			-5.555
80304.000			-55.546			-5.555
80404.000			-55.545			-5.555
80505.000			-55.544			-5.554
80604.000			-55.543			-5.554
80704.000			-55.543			-5.554
80805.000			-55.542			-5.554
80903.000			-55.540			-5.554
81004.000			-55.539			-5.554
81105.000			-55.538			-5.554
81204.000			-55.537			-5.554
81304.000			-55.536			-5.554
81405.000			-55.534			-5.553
81504.000			-55.533			-5.553
81603.000			-55.532			-5.553
81705.000			-55.530			-5.553
81804.000			-55.528			-5.553
81904.000			-55.528			-5.553
82005.000			-55.528			-5.553
82104.000			-55.528			-5.553
82204.000			-55.526			-5.553
82303.000			-55.524			-5.552
82404.000			-55.523			-5.552
82505.000			-55.522			-5.552
82604.000			-55.521			-5.552
82704.000			-55.519			-5.552
82805.000			-55.517			-5.552
82904.000			-55.516			-5.552
83003.000			-55.516			-5.552
83105.000			-55.515			-5.552
83204.000			-55.513			-5.551
83304.000			-55.512			-5.551
83405.000			-55.510			-5.551
83504.000			-55.509			-5.551
83604.000			-55.508			-5.551
83704.000			-55.507			-5.551
83804.000			-55.506			-5.551
83904.000			-55.505			-5.550
84005.000			-55.504			-5.550
84104.000			-55.503			-5.550
84204.000			-55.502			-5.550
84305.000			-55.502			-5.550
84403.000			-55.502			-5.550
84504.000			-55.500			-5.550
84605.000			-55.498			-5.550
84704.000			-55.496			-5.550
84804.000			-55.495			-5.549
84905.000			-55.494			-5.549
85004.000			-55.494			-5.549
85103.000			-55.493			-5.549
85205.000			-55.492			-5.549
85304.000			-55.492			-5.549
85404.000			-55.489			-5.549
85505.000			-55.489			-5.549
85604.000			-55.487			-5.549
85705.000			-55.487			-5.549
85803.000			-55.485			-5.548
85904.000			-55.483			-5.548
86005.000			-55.483			-5.548
86104.000			-55.481			-5.548
86204.000			-55.481			-5.548
86305.000			-55.480			-5.548
86404.000			-55.478			-5.548
86503.000			-55.477			-5.548
86605.000			-55.475			-5.548
86703.000			-55.475			-5.547
86804.000			-55.474			-5.547
86905.000			-55.473			-5.547
87004.000			-55.470			-5.547
87104.000			-55.470			-5.547
87205.000			-55.471			-5.547
87304.000			-55.469			-5.547
87403.000			-55.467			-5.547
87505.000			-55.465			-5.547
87604.000			-55.464			-5.546
87704.000			-55.463			-5.546
87805.000			-55.462			-5.546
87904.000			-55.462			-5.546
88004.000			-55.460			-5.546
88104.000			-55.459			-5.546
88204.000			-55.460			-5.546
88304.000			-55.458			-5.546
88405.000			-55.457			-5.546
88504.000			-55.455			-5.545
88604.000			-55.454			-5.545
88705.000			-55.454			-5.545
88803.000			-55.453			-5.545
88905.000			-55.452			-5.545
89004.000			-55.449			-5.545
89104.000			-55.448			-5.545
89205.000			-55.446			-5.545
89304.000			-55.446			-5.545
89404.000			-55.445			-5.544
89504.000			-55.444			-5.544
89604.000			-55.443			-5.544
89704.000			-55.441			-5.544
89805.000			-55.441			-5.544
89904.000			-55.440			-5.544
90004.000			-55.439			-5.544
90105.000			-55.439			-5.544
90203.000			-55.438			-5.544
90304.000			-55.436			-5.544
90405.000			-55.435			-5.544
90504.000			-55.434			-5.543
90604.000			-55.433			-5.543
90705.000			-55.431			-5.543
90804.000			-55.431			-5.543
90903.000			-55.430			-5.543
91005.000			-55.429			-5.543
91104.000			-55.427			-5.543
91204.000			-55.427			-5.543
91305.000			-55.425			-5.543
91404.000			-55.424			-5.542
91504.000			-55.422			-5.542
91604.000			-55.422			-5.542
91704.000			-55.421			-5.542
91804.000			-55.420			-5.542
91904.000			-55.418			-5.542
92004.000			-55.417			-5.542
92105.000			-55.417			-5.542
92204.000			-55.417			-5.542
92303.000			-55.415			-5.541
92405.000			-55.413			-5.541
92504.000			-55.414			-5.541
92604.000			-55.412			-5.541
92705.000			-55.410			-5.541
92804.000			-55.409			-5.541
92904.000			-55.408			-5.541
93004.000			-55.408			-5.541
93104.000			-55.407			-5.541
93203.000			-55.406			-5.541
93305.000			-55.405			-5.541
93404.000			-55.403			-5.540
93504.000			-55.402			-5.540
93605.000			-55.402			-5.540
93704.000			-55.401			-5.540
93804.000			-55.400			-5.540
93904.000			-55.399			-5.540
94004.000			-55.397			-5.540
94104.000			-55.396			-5.540
94205.000			-55.396			-5.540
94304.000			-55.395			-5.539
94404.000			-55.394			-5.539
94505.000			-55.393			-5.539
94603.000			-55.391			-5.539
94704.000			-55.391			-5.539
94805.000			-55.390			-5.539
94904.000			-55.388			-5.539
95004.000			-55.386			-5.539
95104.000			-55.386			-5.539
95204.000			-55.386			-5.539
95303.000			-55.385			-5.539
95404.000			-55.385			-5.538
95504.000			-55.384			-5.538
95605.000			-55.382			-5.538
95704.000			-55.381			-5.538
95804.000			-55.381			-5.538
95905.000			-55.379			-5.538
96003.000			-55.378			-5.538
96104.000			-55.375			-5.538
96204.000			-55.375			-5.537
96304.000			-55.374			-5.537
96404.000			-55.373			-5.537
96505.000			-55.372			-5.537
96604.000			-55.370			-5.537
96703.000			-55.370			-5.537
96805.000			-55.370			-5.537
96903.000			-55.370			-5.537
97004.000			-55.367			-5.537
97105.000			-55.367			-5.537
97204.000			-55.365			-5.537
97304.000			-55.364			-5.536
97405.000			-55.364			-5.536
97504.000			-55.363			-5.536
97603.000			-55.362			-5.536
97705.000			-55.362			-5.536
97804.000			-55.360			-5.536
97904.000			-55.359			-5.536
98005.000			-55.359			-5.536
98104.000			-55.358			-5.536
98204.000			-55.356			-5.536
98303.000			-55.355			-5.535
98404.000			-55.354			-5.535
98505.000			-55.354			-5.535
98604.000			-55.353			-5.535
98704.000			-55.352			-5.535
98805.000			-55.350			-5.535
98904.000			-55.349			-5.535
99003.000			-55.349			-5.535
99105.000			-55.347			-5.535
99203.000			-55.346			-5.535
99304.000			-55.345			-5.535
99405.000			-55.344			-5.534
99504.000			-55.344			-5.534
99604.000			-55.343			-5.534
99705.000			-55.341			-5.534
99804.000			-55.339			-5.534
99903.000			-55.340			-5.534
100005.000			-55.339			-5.534
100104.000			-55.339			-5.534
100204.000			-55.338			-5.534
100305.000			-55.337			-5.534
100404.000			-55.335			-5.534
100504.000			-55.334			-5.533
100604.000			-55.333			-5.533
100704.000			-55.331			-5.533
100804.000			-55.330			-5.533
100905.000			-55.329			-5.533
101004.000			-55.328			-5.533
101104.000			-55.328			-5.533
101205.000			-55.328			-5.533
101303.000			-55.326			-5.533
101404.000			-55.325			-5.532
101505.000			-55.324			-5.532
101604.000			-55.325			-5.532
101705.000			-55.323			-5.532
101804.000			-55.322			-5.532
101904.000			-55.321			-5.532
102004.000			-55.319			-5.532
102104.000			-55.319			-5.532
102204.000			-55.317			-5.532
102305.000			-55.317			-5.532
102404.000			-55.316			-5.532
102504.000			-55.315			-5.532
102605.000			-55.314			-5.531
102703.000			-55.313			-5.531
102804.000			-55.312			-5.531
102905.000			-55.310			-5.531
103004.000			-55.309			-5.531
103104.000			-55.309			-5.531
103205.000			-55.308			-5.531
103304.000			-55.308			-5.531
103403.000			-55.307			-5.531
103505.000			-55.305			-5.531
103604.000			-55.304			-5.530
103704.000			-55.304			-5.530
103805.000			-55.304			-5.530
103904.000			-55.303			-5.530
104004.000			-55.302			-5.530
104104.000			-55.301			-5.530
104204.000			-55.300			-5.530
104304.000			-55.298			-5.530
104405.000			-55.296			-5.530
104504.000			-55.296			-5.530
104604.000			-55.295			-5.529
104705.000			-55.295			-5.529
104803.000			-55.295			-5.529
104905.000			-55.294			-5.529
105004.000			-55.293			-5.529
105104.000			-55.292			-5.529
105205.000			-55.290			-5.529
105304.000			-55.289			-5.529
105404.000			-55.289			-5.529
105504.000			-55.288			-5.529
105604.000			-55.286			-5.529
105703.000			-55.286			-5.529
105805.000			-55.283			-5.528
105904.000			-55.284			-5.528
106004.000			-55.283			-5.528
106105.000			-55.282			-5.528
106204.000			-55.282			-5.528
106304.000			-55.280			-5.528
106404.000			-55.279			-5.528
106504.000			-55.278			-5.528
106604.000			-55.277			-5.528
106705.000			-55.276			-5.528
106804.000			-55.275			-5.527
106904.000			-55.275			-5.527
107005.000			-55.274			-5.527
107103.000			-55.272			-5.527
107204.000			-55.271			-5.527
107305.000			-55.270			-5.527
107404.000			-55.270			-5.527
107504.000			-55.269			-5.527
107605.000			-55.269			-5.527
107704.000			-55.268			-5.527
107803.000			-55.266			-5.527
107905.000			-55.264			-5.526
108004.000			-55.263			-5.526
108105.000			-55.264			-5.526
108204.000			-55.263			-5.526
108304.000			-55.262			-5.526
108405.000			-55.261			-5.526
108503.000			-55.260			-5.526
108604.000			-55.260			-5.526
108704.000			-55.259			-5.526
108804.000			-55.259			-5.526
108904.000			-55.258			-5.526
109005.000			-55.257			-5.526
109104.000			-55.256			-5.526
109204.000			-55.255			-5.525
109305.000			-55.254			-5.525
109403.000			-55.253			-5.525
109504.000			-55.251			-5.525
109605.000			-55.249			-5.525
109704.000			-55.249			-5.525
109804.000			-55.249			-5.525
109905.000			-55.248			-5.525
110004.000			-55.247			-5.525
110103.000			-55.247			-5.525
110205.000			-55.245			-5.524
110304.000			-55.244			-5.524
110404.000			-55.244			-5.524
110505.000			-55.243			-5.524
110604.000			-55.242			-5.524
110704.000			-55.240			-5.524
110804.000			-55.241			-5.524
110904.000			-55.239			-5.524
111004.000			-55.238			-5.524
111104.000			-55.237			-5.524
111204.000			-55.237			-5.524
111305.000			-55.237			-5.524
111404.000			-55.235			-5.524
111503.000			-55.235			-5.523
111605.000			-55.234			-5.523
111704.000			-55.232			-5.523
111804.000			-55.231			-5.523
111905.000			-55.231			-5.523
112004.000			-55.230			-5.523
112104.000			-55.230			-5.523
112204.000			-55.229			-5.523
112304.000			-55.229			-5.523
112404.000			-55.226			-5.523
112505.000			-55.226			-5.523
112604.000			-55.226			-5.523
112704.000			-55.225			-5.522
112805.000			-55.223			-5.522
112903.000			-55.222			-5.522
113004.000			-55.221			-5.522
113105.000			-55.220			-5.522
113204.000			-55.220			-5.522
113304.000			-55.219			-5.522
113405.000			-55.218			-5.522
113504.000			-55.218			-5.522
113603.000			-55.217			-5.522
113705.000			-55.216			-5.522
113804.000			-55.215			-5.521
113904.000			-55.214			-5.521
114005.000			-55.213			-5.521
114104.000			-55.212			-5.521
114204.000			-55.210			-5.521
114303.000			-55.209			-5.521
114404.000			-55.209			-5.521
114505.000			-55.208			-5.521
114604.000			-55.208			-5.521
114704.000			-55.207			-5.521
114805.000			-55.207			-5.521
114904.000			-55.206			-5.521
115003.000			-55.205			-5.520
115105.000			-55.205			-5.520
115203.000			-55.204			-5.520
115304.000			-55.201			-5.520
115405.000			-55.201			-5.520
115504.000			-55.200			-5.520
115604.000			-55.199			-5.520
115704.000			-55.198			-5.520
115804.000			-55.198			-5.520
115903.000			-55.197			-5.520
116005.000			-55.197			-5.520
116104.000			-55.195			-5.520
116204.000			-55.195			-5.519
116305.000			-55.194			-5.519
116404.000			-55.192			-5.519
116504.000			-55.191			-5.519
116604.000			-55.191			-5.519
116704.000			-55.190			-5.519
116804.000			-55.190			-5.519
116905.000			-55.188			-5.519
117004.000			-55.188			-5.519
117104.000			-55.187			-5.519
117205.000			-55.186			-5.519
117303.000			-55.186			-5.519
117404.000			-55.185			-5.519
117505.000			-55.182			-5.518
117604.000			-55.182			-5.518
117705.000			-55.181			-5.518
117804.000			-55.180			-5.518
117904.000			-55.179			-5.518
118004.000			-55.179			-5.518
118104.000			-55.179			-5.518
118203.000			-55.177			-5.518
118305.000			-55.177			-5.518
118404.000			-55.177			-5.518
118504.000			-55.177			-5.518
118605.000			-55.176			-5.518
118704.000			-55.174			-5.517
118804.000			-55.173			-5.517
118904.000			-55.171			-5.517
119004.000			-55.170			-5.517
119104.000			-55.171			-5.517
119205.000			-55.170			-5.517
119304.000			-55.169			-5.517
119404.000			-55.167			-5.517
119505.000			-55.167			-5.517
119603.000			-55.166			-5.517
119704.000			-55.164			-5.516
119805.000			-55.163			-5.516
119904.000			-55.164			-5.516
120004.000			-55.163			-5.516
120105.000			-55.162			-5.516
120204.000			-55.160			-5.516
120303.000			-55.160			-5.516
120405.000			-55.159			-5.516
120504.000			-55.158			-5.516
120604.000			-55.157			-5.516
120705.000			-55.157			-5.516
120804.000			-55.156			-5.516
120905.000			-55.156			-5.516
121004.000			-55.155			-5.516
121104.000			-55.154			-5.515
121204.000			-55.153			-5.515
121304.000			-55.152			-5.515
121404.000			-55.152			-5.515
121505.000			-55.151			-5.515
121604.000			-55.150			-5.515
121704.000			-55.150			-5.515
121805.000			-55.149			-5.515
121903.000			-55.148			-5.515
122004.000			-55.147			-5.515
122105.000			-55.148			-5.515
122204.000			-55.146			-5.515
122304.000			-55.145			-5.514
122405.000			-55.144			-5.514
122504.000			-55.143			-5.514
122603.000			-55.142			-5.514
122705.000			-55.140			-5.514
122804.000			-55.140			-5.514
122904.000			-55.139			-5.514
123005.000			-55.138			-5.514
123104.000			-55.137			-5.514
123204.000			-55.138			-5.514
123304.000			-55.135			-5.514
123404.000			-55.134			-5.513
123504.000			-55.135			-5.513
123605.000			-55.134			-5.513
123704.000			-55.133			-5.513
123804.000			-55.133			-5.513
123905.000			-55.132			-5.513
124003.000			-55.130			-5.513
124105.000			-55.131			-5.513
124204.000			-55.129			-5.513
124304.000			-55.128			-5.513
124405.000			-55.127			-5.513
124504.000			-55.126			-5.513
124604.000			-55.126			-5.513
124704.000			-55.125			-5.513
124804.000			-55.124			-5.512
124904.000			-55.122			-5.512
125005.000			-55.123			-5.512
125104.000			-55.123			-5.512
125204.000			-55.121			-5.512
125305.000			-55.122			-5.512
125403.000			-55.121			-5.512
125504.000			-55.118			-5.512
125605.000			-55.117			-5.512
125704.000			-55.117			-5.512
125804.000			-55.116			-5.512
125905.000			-55.116			-5.512
126004.000			-55.115			-5.512
126103.000			-55.115			-5.511
126205.000			-55.113			-5.511
126304.000			-55.112			-5.511
126404.000			-55.111			-5.511
126505.000			-55.112			-5.511
126604.000			-55.112			-5.511
126704.000			-55.110			-5.511
126804.000			-55.109			-5.511
126904.000			-55.108			-5.511
127004.000			-55.107			-5.511
127104.000			-55.106			-5.511
127204.000			-55.107			-5.511
127305.000			-55.105			-5.511
127404.000			-55.104			-5.510
127503.000			-55.104			-5.510
127605.000			-55.103			-5.510
127704.000			-55.103			-5.510
127804.000			-55.102			-5.510
127905.000			-55.101			-5.510
128004.000			-55.099			-5.510
128104.000			-55.098			-5.510
128204.000			-55.100			-5.510
128304.000			-55.099			-5.510
128403.000			-55.098			-5.510
128505.000			-55.098			-5.510
128604.000			-55.096			-5.510
128704.000			-55.094			-5.509
128805.000			-55.094			-5.509
128904.000			-55.094			-5.509
129004.000			-55.093			-5.509
129104.000			-55.092			-5.509
129204.000			-55.092			-5.509
129304.000			-55.091			-5.509
129405.000			-55.090			-5.509
129504.000			-55.088			-5.509
129604.000			-55.088			-5.509
129705.000			-55.086			-5.509
129803.000			-55.086			-5.509
129904.000			-55.086			-5.509
130004.000			-55.085			-5.508
130104.000			-55.084			-5.508
130204.000			-55.084			-5.508
130304.000			-55.083			-5.508
130404.000			-55.082			-5.508
130505.000			-55.081			-5.508
130604.000			-55.081			-5.508
130703.000			-55.080			-5.508
130805.000			-55.081			-5.508
130904.000			-55.080			-5.508
131004.000			-55.078			-5.508
131105.000			-55.077			-5.508
131204.000			-55.076			-5.508
131304.000			-55.076			-5.508
131404.000			-55.075			-5.507
131504.000			-55.075			-5.507
131603.000			-55.073			-5.507
131705.000			-55.071			-5.507
131804.000			-55.071			-5.507
131904.000			-55.070			-5.507
132005.000			-55.070			-5.507
132104.000			-55.069			-5.507
132204.000			-55.068			-5.507
132304.000			-55.068			-5.507
132404.000			-55.068			-5.507
132504.000			-55.067			-5.507
132605.000			-55.066			-5.507
132704.000			-55.065			-5.507
132804.000			-55.064			-5.506
132905.000			-55.063			-5.506
133004.000			-55.063			-5.506
133104.000			-55.062			-5.506
133204.000			-55.061			-5.506
133304.000			-55.060			-5.506
133404.000			-55.060			-5.506
133504.000			-55.060			-5.506
133604.000			-55.059			-5.506
133705.000			-55.058			-5.506
133804.000			-55.056			-5.506
133904.000			-55.056			-5.506
134005.000			-55.055			-5.506
134103.000			-55.055			-5.505
134204.000			-55.055			-5.505
134305.000			-55.053			-5.505
134404.000			-55.051			-5.505
134504.000			-55.052			-5.505
134605.000			-55.051			-5.505
134704.000			-55.051			-5.505
134803.000			-55.051			-5.505
134905.000			-55.050			-5.505
135003.000			-55.048			-5.505
135104.000			-55.047			-5.505
135205.000			-55.047			-5.505
135304.000			-55.045			-5.505
135404.000			-55.045			-5.504
135505.000			-55.044			-5.504
135604.000			-55.044			-5.504
135703.000			-55.042			-5.504
135805.000			-55.042			-5.504
135904.000			-55.040			-5.504
136004.000			-55.039			-5.504
136105.000			-55.038			-5.504
136204.000			-55.038			-5.504
136304.000			-55.039			-5.504
136405.000			-55.037			-5.504
136504.000			-55.036			-5.504
136603.000			-55.036			-5.504
136705.000			-55.036			-5.504
136804.000			-55.035			-5.504
136905.000			-55.034			-5.503
137004.000			-55.033			-5.503
137104.000			-55.033			-5.503
137205.000			-55.032			-5.503
137304.000			-55.031			-5.503
137404.000			-55.029			-5.503
137504.000			-55.030			-5.503
137604.000			-55.028			-5.503
137704.000			-55.028			-5.503
137805.000			-55.029			-5.503
137904.000			-55.027			-5.503
138004.000			-55.026			-5.503
138105.000			-55.026			-5.503
138204.000			-55.025			-5.502
138304.000			-55.023			-5.502
138404.000			-55.022			-5.502
138504.000			-55.022			-5.502
138604.000			-55.021			-5.502
138705.000			-55.020			-5.502
138804.000			-55.020			-5.502
138904.000			-55.018			-5.502
139005.000			-55.017			-5.502
139104.000			-55.017			-5.502
139204.000			-55.017			-5.502
139304.000			-55.017			-5.502
139404.000			-55.016			-5.502
139504.000			-55.014			-5.501
139605.000			-55.013			-5.501
139704.000			-55.012			-5.501
139804.000			-55.012			-5.501
139905.000			-55.012			-5.501
140004.000			-55.011			-5.501
140105.000			-55.010			-5.501
140203.000			-55.009			-5.501
140304.000			-55.009			-5.501
140405.000			-55.009			-5.501
140504.000			-55.009			-5.501
140604.000			-55.009			-5.501
140705.000			-55.007			-5.501
140804.000			-55.006			-5.501
140903.000			-55.006			-5.501
141005.000			-55.006			-5.501
141104.000			-55.004			-5.500
141204.000			-55.002			-5.500
141305.000			-55.003			-5.500
141404.000			-55.002			-5.500
141504.000			-55.001			-5.500
141604.000			-54.999			-5.500
141704.000			-54.999			-5.500
141803.000			-54.998			-5.500
141905.000			-54.997			-5.500
142004.000			-54.997			-5.500
142104.000			-54.995			-5.499
142205.000			-54.995			-5.500
142304.000			-54.995			-5.499
142404.000			-54.994			-5.499
142504.000			-54.993			-5.499
142604.000			-54.993			-5.499
142703.000			-54.992			-5.499
142805.000			-54.991			-5.499
142904.000			-54.991			-5.499
143004.000			-54.989			-5.499
143105.000			-54.989			-5.499
143204.000			-54.989			-5.499
143305.000			-54.987			-5.499
143404.000			-54.987			-5.499
143504.000			-54.985			-5.499
143604.000			-54.985			-5.498
143704.000			-54.985			-5.498
143804.000			-54.984			-5.498
143905.000			-54.984			-5.498
144004.000			-54.983			-5.498
144104.000			-54.982			-5.498
144205.000			-54.981			-5.498
144304.000			-54.980			-5.498
144404.000			-54.980			-5.498
144504.000			-54.979			-5.498
144604.000			-54.978			-5.498
144703.000			-54.977			-5.498
144805.000			-54.977			-5.498
144904.000			-54.977			-5.498
145004.000			-54.977			-5.498
145105.000			-54.976			-5.498
145204.000			-54.975			-5.497
145304.000			-54.975			-5.497
145405.000			-54.974			-5.497
145504.000			-54.973			-5.497
145603.000			-54.973			-5.497
145705.000			-54.972			-5.497
145804.000			-54.971			-5.497
145904.000			-54.970			-5.497
146005.000			-54.970			-5.497
146104.000			-54.968			-5.497
146204.000			-54.968			-5.497
146304.000			-54.968			-5.497
146404.000			-54.967			-5.497
146503.000			-54.967			-5.497
146604.000			-54.966			-5.497
146703.000			-54.963			-5.496
146805.000			-54.964			-5.496
146904.000			-54.963			-5.496
147004.000			-54.962			-5.496
147105.000			-54.962			-5.496
147204.000			-54.962			-5.496
147304.000			-54.961			-5.496
147405.000			-54.960			-5.496
147504.000			-54.959			-5.496
147603.000			-54.958			-5.496
147705.000			-54.958			-5.496
147804.000			-54.957			-5.496
147904.000			-54.955			-5.496
148005.000			-54.956			-5.496
148104.000			-54.956			-5.496
148204.000			-54.955			-5.496
148305.000			-54.954			-5.495
148404.000			-54.953			-5.495
148503.000			-54.953			-5.495
148605.000			-54.952			-5.495
148703.000			-54.952			-5.495
148804.000			-54.950			-5.495
148905.000			-54.949			-5.495
149004.000			-54.949			-5.495
149104.000			-54.949			-5.495
149205.000			-54.949			-5.495
149304.000			-54.949			-5.495
149404.000			-54.948			-5.495
149505.000			-54.946			-5.495
149603.000			-54.945			-5.495
149705.000			-54.944			-5.494
149804.000			-54.944			-5.494
149904.000			-54.944			-5.494
150005.000			-54.943			-5.494
150104.000			-54.943			-5.494
150204.000			-54.942			-5.494
150305.000			-54.941			-5.494
150404.000			-54.940			-5.494
150503.000			-54.938			-5.494
150605.000			-54.937			-5.494
150704.000			-54.938			-5.494
150804.000			-54.937			-5.494
150905.000			-54.937			-5.494
151004.000			-54.936			-5.494
151104.000			-54.934			-5.493
151205.000			-54.935			-5.493
151304.000			-54.935			-5.493
151403.000			-54.934			-5.493
151505.000			-54.934			-5.493
151604.000			-54.934			-5.493
151704.000			-54.933			-5.493
151805.000			-54.930			-5.493
151904.000			-54.930			-5.493
152004.000			-54.930			-5.493
152105.000			-54.928			-5.493
152204.000			-54.929			-5.493
152303.000			-54.929			-5.493
152405.000			-54.926			-5.493
152504.000			-54.926			-5.493
152604.000			-54.926			-5.493
152705.000			-54.926			-5.493
152804.000			-54.925			-5.493
152905.000			-54.923			-5.492
153004.000			-54.923			-5.492
153104.000			-54.924			-5.492
153204.000			-54.922			-5.492
153304.000			-54.922			-5.492
153403.000			-54.920			-5.492
153505.000			-54.919			-5.492
153604.000			-54.919			-5.492
153704.000			-54.919			-5.492
153805.000			-54.919			-5.492
153904.000			-54.918			-5.492
154004.000			-54.917			-5.492
154104.000			-54.916			-5.492
154204.000			-54.916			-5.492
154303.000			-54.915			-5.492
154405.000			-54.914			-5.491
154504.000			-54.914			-5.491
154604.000			-54.913			-5.491
154705.000			-54.913			-5.491
154804.000			-54.912			-5.491
154904.000			-54.911			-5.491
155004.000			-54.911			-5.491
155104.000			-54.910			-5.491
155203.000			-54.909			-5.491
155305.000			-54.909			-5.491
155404.000			-54.906			-5.491
155504.000			-54.906			-5.491
155605.000			-54.906			-5.491
155704.000			-54.906			-5.491
155804.000			-54.905			-5.491
155903.000			-54.904			-5.490
156004.000			-54.903			-5.490
156103.000			-54.903			-5.490
156204.000			-54.903			-5.490
156304.000			-54.902			-5.490
156405.000			-54.902			-5.490
156504.000			-54.901			-5.490
156604.000			-54.900			-5.490
156705.000			-54.900			-5.490
156803.000			-54.899			-5.490
156904.000			-54.898			-5.490
157004.000			-54.898			-5.490
157104.000			-54.897			-5.490
157204.000			-54.897			-5.490
157305.000			-54.896			-5.490
157404.000			-54.895			-5.489
157504.000			-54.894			-5.489
157605.000			-54.893			-5.489
157704.000			-54.894			-5.489
157804.000			-54.894			-5.489
157904.000			-54.893			-5.489
158004.000			-54.892			-5.489
158103.000			-54.890			-5.489
158205.000			-54.890			-5.489
158304.000			-54.888			-5.489
158404.000			-54.889			-5.489
158505.000			-54.889			-5.489
158604.000			-54.887			-5.489
158704.000			-54.886			-5.489
158804.000			-54.886			-5.489
158904.000			-54.885			-5.489
159003.000			-54.885			-5.489
159105.000			-54.884			-5.488
159204.000			-54.882			-5.488
159305.000			-54.881			-5.488
159404.000			-54.883			-5.488
159504.000			-54.882			-5.488
159605.000			-54.881			-5.488
159704.000			-54.880			-5.488
159804.000			-54.879			-5.488
159904.000			-54.879			-5.488
160004.000			-54.879			-5.488
160104.000			-54.879			-5.488
160205.000			-54.878			-5.488
160304.000			-54.878			-5.488
160404.000			-54.876			-5.488
160505.000			-54.875			-5.488
160604.000			-54.874			-5.487
160704.000			-54.874			-5.487
160804.000			-54.874			-5.487
160904.000			-54.874			-5.487
161003.000			-54.873			-5.487
161105.000			-54.872			-5.487
161204.000			-54.872			-5.487
161304.000			-54.871			-5.487
161405.000			-54.870			-5.487
161504.000			-54.869			-5.487
161604.000			-54.868			-5.487
161704.000			-54.869			-5.487
161804.000			-54.867			-5.487
161903.000			-54.867			-5.487
162005.000			-54.867			-5.487
162104.000			-54.865			-5.487
162204.000			-54.865			-5.487
162305.000			-54.865			-5.486
162404.000			-54.864			-5.486
162505.000			-54.863			-5.486
162603.000			-54.863			-5.486
162704.000			-54.861			-5.486
162804.000			-54.861			-5.486
162904.000			-54.861			-5.486
163004.000			-54.861			-5.486
163105.000			-54.860			-5.486
163204.000			-54.859			-5.486
163304.000			-54.858			-5.486
163405.000			-54.858			-5.486
163503.000			-54.857			-5.486
163604.000			-54.856			-5.486
163704.000			-54.856			-5.486
163804.000			-54.857			-5.486
163904.000			-54.855			-5.485
164005.000			-54.854			-5.485
164104.000			-54.856			-5.486
164204.000			-54.854			-5.485
164305.000			-54.853			-5.485
164404.000			-54.852			-5.485
164504.000			-54.852			-5.485
164604.000			-54.851			-5.485
164704.000			-54.850			-5.485
164804.000			-54.849			-5.485
164905.000			-54.848			-5.485
165004.000			-54.847			-5.485
165104.000			-54.848			-5.485
165205.000			-54.847			-5.485
165304.000			-54.846			-5.485
165404.000			-54.846			-5.485
165503.000			-54.846			-5.485
165604.000			-54.845			-5.485
165705.000			-54.844			-5.484
165804.000			-54.843			-5.484
165904.000			-54.841			-5.484
166005.000			-54.842			-5.484
166104.000			-54.843			-5.484
166204.000			-54.842			-5.484
166305.000			-54.841			-5.484
166403.000			-54.840			-5.484
166504.000			-54.840			-5.484
166604.000			-54.840			-5.484
166704.000			-54.838			-5.484
166804.000			-54.836			-5.484
166905.000			-54.836			-5.484
167004.000			-54.836			-5.484
167104.000			-54.835			-5.483
167205.000			-54.835			-5.483
167303.000			-54.834			-5.483
167404.000			-54.833			-5.483
167504.000			-54.833			-5.483
167604.000			-54.832			-5.483
167704.000			-54.833			-5.483
167805.000			-54.833			-5.483
167904.000			-54.831			-5.483
168004.000			-54.830			-5.483
168105.000			-54.830			-5.483
168204.000			-54.829			-5.483
168304.000			-54.828			-5.483
168404.000			-54.828			-5.483
168504.000			-54.828			-5.483
168604.000			-54.827			-5.483
168704.000			-54.827			-5.483
168804.000			-54.826			-5.483
168905.000			-54.825			-5.482
169004.000			-54.825			-5.482
169104.000			-54.824			-5.482
169205.000			-54.824			-5.482
169303.000			-54.822			-5.482
169404.000			-54.821			-5.482
169505.000			-54.820			-5.482
169604.000			-54.820			-5.482
169704.000			-54.820			-5.482
169805.000			-54.820			-5.482
169904.000			-54.818			-5.482
170004.000			-54.818			-5.482
170105.000			-54.817			-5.482
170203.000			-54.816			-5.482
170304.000			-54.817			-5.482
170404.000			-54.816			-5.482
170504.000			-54.816			-5.482
170604.000			-54.815			-5.482
170705.000			-54.814			-5.481
170804.000			-54.814			-5.481
170904.000			-54.814			-5.481
171005.000			-54.813			-5.481
171103.000			-54.812			-5.481
171204.000			-54.811			-5.481
171305.000			-54.810			-5.481
171404.000			-54.810			-5.481
171504.000			-54.809			-5.481
171605.000			-54.809			-5.481
171704.000			-54.809			-5.481
171804.000			-54.808			-5.481
171905.000			-54.807			-5.481
172003.000			-54.807			-5.481
172105.000			-54.807			-5.481
172203.000			-54.806			-5.481
172304.000			-54.804			-5.480
172405.000			-54.804			-5.480
172504.000			-54.803			-5.480
172604.000			-54.803			-5.480
172705.000			-54.803			-5.480
172804.000			-54.803			-5.480
172903.000			-54.802			-5.480
173005.000			-54.802			-5.480
173104.000			-54.801			-5.480
173204.000			-54.799			-5.480
173305.000			-54.799			-5.480
173404.000			-54.799			-5.480
173504.000			-54.798			-5.480
173605.000			-54.797			-5.480
173704.000			-54.798			-5.480
173803.000			-54.797			-5.480
173905.000			-54.795			-5.480
174003.000			-54.795			-5.480
174104.000			-54.795			-5.479
174205.000			-54.794			-5.479
174304.000			-54.793			-5.479
174404.000			-54.793			-5.479
174505.000			-54.793			-5.479
174604.000			-54.793			-5.479
174704.000			-54.791			-5.479
174805.000			-54.790			-5.479
174903.000			-54.790			-5.479
175004.000			-54.790			-5.479
175105.000			-54.789			-5.479
175204.000			-54.788			-5.479
175305.000			-54.788			-5.479
175404.000			-54.789			-5.479
175504.000			-54.788			-5.479
175605.000			-54.787			-5.479
175704.000			-54.787			-5.479
175803.000			-54.785			-5.478
175905.000			-54.785			-5.478
176003.000			-54.784			-5.478
176104.000			-54.783			-5.478
176205.000			-54.783			-5.478
176304.000			-54.782			-5.478
176404.000			-54.781			-5.478
176505.000			-54.781			-5.478
176604.000			-54.781			-5.478
176704.000			-54.780			-5.478
176805.000			-54.779			-5.478
176903.000			-54.778			-5.478
177004.000			-54.778			-5.478
177105.000			-54.778			-5.478
177204.000			-54.777			-5.478
177304.000			-54.777			-5.478
177405.000			-54.774			-5.477
177504.000			-54.775			-5.478
177604.000			-54.775			-5.477
177705.000			-54.774			-5.477
177804.000			-54.773			-5.477
177904.000			-54.774			-5.477
178004.000			-54.774			-5.477
178104.000			-54.771			-5.477
178204.000			-54.770			-5.477
178304.000			-54.769			-5.477
178404.000			-54.770			-5.477
178505.000			-54.770			-5.477
178604.000			-54.769			-5.477
178704.000			-54.770			-5.477
178805.000			-54.768			-5.477
178904.000			-54.768			-5.477
179004.000			-54.768			-5.477
179104.000			-54.768			-5.477
179204.000			-54.766			-5.477
179304.000			-54.766			-5.477
179405.000			-54.766			-5.477
179504.000			-54.766			-5.477
179604.000			-54.764			-5.476
179705.000			-54.763			-5.476
179804.000			-54.763			-5.476
179904.000			-54.762			-5.476
180004.000			-54.762			-5.476
180104.000			-54.761			-5.476
180203.000			-54.760			-5.476
180305.000			-54.760			-5.476
180404.000			-54.759			-5.476
180504.000			-54.759			-5.476
180605.000			-54.758			-5.476
180704.000			-54.759			-5.476
180804.000			-54.757			-5.476
180904.000			-54.756			-5.476
181004.000			-54.757			-5.476
181103.000			-54.756			-5.476
181205.000			-54.755			-5.476
181304.000			-54.754			-5.475
181404.000			-54.753			-5.475
181505.000			-54.752			-5.475
181604.000			-54.752			-5.475
181705.000			-54.750			-5.475
181804.000			-54.751			-5.475
181904.000			-54.751			-5.475
182004.000			-54.751			-5.475
182104.000			-54.751			-5.475
182204.000			-54.750			-5.475
182305.000			-54.749			-5.475
182404.000			-54.747			-5.475
182504.000			-54.746			-5.475
182605.000			-54.745			-5.475
182704.000			-54.745			-5.475
182804.000			-54.744			-5.474
182904.000			-54.743			-5.474
183004.000			-54.744			-5.474
183104.000			-54.744			-5.474
183205.000			-54.744			-5.474
183304.000			-54.743			-5.474
183404.000			-54.742			-5.474
183505.000			-54.741			-5.474
183604.000			-54.740			-5.474
183704.000			-54.741			-5.474
183804.000			-54.741			-5.474
183904.000			-54.740			-5.474
184003.000			-54.739			-5.474
184105.000			-54.738			-5.474
184204.000			-54.737			-5.474
184304.000			-54.736			-5.474
184405.000			-54.736			-5.474
184504.000			-54.736			-5.474
184604.000			-54.735			-5.474
184703.000			-54.735			-5.473
184804.000			-54.734			-5.473
184903.000			-54.732			-5.473
185004.000			-54.733			-5.473
185104.000			-54.734			-5.473
185205.000			-54.732			-5.473
185304.000			-54.732			-5.473
185404.000			-54.731			-5.473
185505.000			-54.731			-5.473
185604.000			-54.731			-5.473
185704.000			-54.730			-5.473
185804.000			-54.729			-5.473
185904.000			-54.730			-5.473
186004.000			-54.729			-5.473
186105.000			-54.727			-5.473
186204.000			-54.727			-5.473
186304.000			-54.726			-5.473
186405.000			-54.727			-5.473
186504.000			-54.726			-5.473
186604.000			-54.725			-5.473
186704.000			-54.725			-5.473
186804.000			-54.723			-5.472
186904.000			-54.723			-5.472
187005.000			-54.723			-5.472
187104.000			-54.722			-5.472
187204.000			-54.722			-5.472
187305.000			-54.722			-5.472
187404.000			-54.722			-5.472
187504.000			-54.721			-5.472
187604.000			-54.719			-5.472
187704.000			-54.719			-5.472
187803.000			-54.720			-5.472
187905.000			-54.718			-5.472
188004.000			-54.718			-5.472
188105.000			-54.717			-5.472
188204.000			-54.717			-5.472
188304.000			-54.716			-5.472
188405.000			-54.715			-5.472
188503.000			-54.714			-5.471
188604.000			-54.714			-5.471
188704.000			-54.714			-5.471
188804.000			-54.714			-5.471
188904.000			-54.713			-5.471
189005.000			-54.713			-5.471
189104.000			-54.711			-5.471
189204.000			-54.712			-5.471
189305.000			-54.711			-5.471
189404.000			-54.710			-5.471
189504.000			-54.710			-5.471
189604.000			-54.710			-5.471
189704.000			-54.710			-5.471
189804.000			-54.707			-5.471
189905.000			-54.707			-5.471
190004.000			-54.707			-5.471
190104.000			-54.707			-5.471
190205.000			-54.706			-5.471
190304.000			-54.705			-5.471
190404.000			-54.705			-5.470
190504.000			-54.704			-5.470
190604.000			-54.704			-5.470
190704.000			-54.702			-5.470
190805.000			-54.701			-5.470
190904.000			-54.701			-5.470
191004.000			-54.701			-5.470
191105.000			-54.700			-5.470
191204.000			-54.700			-5.470
191305.000			-54.701			-5.470
191403.000			-54.700			-5.470
191504.000			-54.698			-5.470
191605.000			-54.698			-5.470
191704.000			-54.697			-5.470
191804.000			-54.698			-5.470
191905.000			-54.697			-5.470
192004.000			-54.696			-5.470
192104.000			-54.697			-5.470
192205.000			-54.696			-5.470
192303.000			-54.696			-5.470
192404.000			-54.694			-5.469
192504.000			-54.693			-5.469
192604.000			-54.693			-5.469
192704.000			-54.693			-5.469
192805.000			-54.693			-5.469
192904.000			-54.691			-5.469
193004.000			-54.691			-5.469
193105.000			-54.691			-5.469
193204.000			-54.690			-5.469
193304.000			-54.690			-5.469
193404.000			-54.689			-5.469
193504.000			-54.688			-5.469
193604.000			-54.687			-5.469
193705.000			-54.688			-5.469
193804.000			-54.688			-5.469
193904.000			-54.687			-5.469
194005.000			-54.686			-5.469
194104.000			-54.684			-5.468
194204.000			-54.684			-5.468
194303.000			-54.684			-5.468
194404.000			-54.684			-5.468
194503.000			-54.683			-5.468
194604.000			-54.682			-5.468
194704.000			-54.683			-5.468
194805.000			-54.682			-5.468
194904.000			-54.680			-5.468
195004.000			-54.680			-5.468
195105.000			-54.680			-5.468
195203.000			-54.680			-5.468
195304.000			-54.679			-5.468
195404.000			-54.679			-5.468
195504.000			-54.679			-5.468
195604.000			-54.678			-5.468
195705.000			-54.677			-5.468
195804.000			-54.677			-5.468
195904.000			-54.676			-5.468
196005.000			-54.675			-5.467
196104.000			-54.674			-5.467
196204.000			-54.674			-5.467
196304.000			-54.674			-5.467
196404.000			-54.674			-5.467
196504.000			-54.673			-5.467
196605.000			-54.673			-5.467
196704.000			-54.672			-5.467
196804.000			-54.672			-5.467
196905.000			-54.671			-5.467
197004.000			-54.670			-5.467
197104.000			-54.668			-5.467
197204.000			-54.667			-5.467
197304.000			-54.668			-5.467
197403.000			-54.668			-5.467
197505.000			-54.667			-5.467
197604.000			-54.666			-5.467
197705.000			-54.666			-5.467
197804.000			-54.665			-5.467
197904.000			-54.665			-5.467
198005.000			-54.665			-5.466
198104.000			-54.664			-5.466
198204.000			-54.663			-5.466
198304.000			-54.663			-5.466
198404.000			-54.664			-5.466
198504.000			-54.663			-5.466
198605.000			-54.662			-5.466
198704.000			-54.661			-5.466
198804.000			-54.660			-5.466
198905.000			-54.659			-5.466
199004.000			-54.659			-5.466
199104.000			-54.660			-5.466
199204.000			-54.659			-5.466
199304.000			-54.658			-5.466
199403.000			-54.658			-5.466
199505.000			-54.658			-5.466
199604.000			-54.657			-5.466
199704.000			-54.657			-5.466
199805.000			-54.656			-5.466
199904.000			-54.656			-5.466
200004.000			-54.655			-5.466
200105.000			-54.654			-5.465
200204.000			-54.654			-5.465
200303.000			-54.653			-5.465
200405.000			-54.652			-5.465
200504.000			-54.652			-5.465
200604.000			-54.652			-5.465
200705.000			-54.651			-5.465
200804.000			-54.651			-5.465
200905.000			-54.650			-5.465
201004.000			-54.649			-5.465
201104.000			-54.648			-5.465
201204.000			-54.649			-5.465
201304.000			-54.648			-5.465
201404.000			-54.648			-5.465
201505.000			-54.647			-5.465
201604.000			-54.647			-5.465
201704.000			-54.647			-5.465
201805.000			-54.646			-5.465
201903.000			-54.645			-5.465
202004.000			-54.644			-5.464
202104.000			-54.643			-5.464
202204.000			-54.643			-5.464
202304.000			-54.643			-5.464
202405.000			-54.642			-5.464
202504.000			-54.642			-5.464
202604.000			-54.642			-5.464
202705.000			-54.641			-5.464
202803.000			-54.642			-5.464
202904.000			-54.638			-5.464
203005.000			-54.638			-5.464
203104.000			-54.639			-5.464
203204.000			-54.639			-5.464
203305.000			-54.638			-5.464
203404.000			-54.638			-5.464
203504.000			-54.638			-5.464
203605.000			-54.637			-5.464
203703.000			-54.636			-5.464
203804.000			-54.636			-5.464
203903.000			-54.635			-5.464
204004.000			-54.634			-5.463
204105.000			-54.634			-5.463
204204.000			-54.634			-5.463
204304.000			-54.633			-5.463
204405.000			-54.632			-5.463
204504.000			-54.633			-5.463
204603.000			-54.631			-5.463
204705.000			-54.630			-5.463
204804.000			-54.630			-5.463
204904.000			-54.629			-5.463
205005.000			-54.628			-5.463
205104.000			-54.629			-5.463
205204.000			-54.628			-5.463
205305.000			-54.627			-5.463
205404.000			-54.626			-5.463
205503.000			-54.627			-5.463
205605.000			-54.626			-5.463
205704.000			-54.626			-5.463
205804.000			-54.626			-5.463
205905.000			-54.625			-5.462
206004.000			-54.624			-5.462
206104.000			-54.623			-5.462
206205.000			-54.623			-5.462
206304.000			-54.622			-5.462
206403.000			-54.623			-5.462
206505.000			-54.622			-5.462
206604.000			-54.622			-5.462
206704.000			-54.621			-5.462
206805.000			-54.620			-5.462
206904.000			-54.620			-5.462
207004.000			-54.620			-5.462
207104.000			-54.620			-5.462
207204.000			-54.619			-5.462
207303.000			-54.618			-5.462
207404.000			-54.618			-5.462
207504.000			-54.617			-5.462
207605.000			-54.617			-5.462
207704.000			-54.616			-5.462
207804.000			-54.616			-5.462
207905.000			-54.617			-5.462
208004.000			-54.616			-5.462
208104.000			-54.615			-5.461
208204.000			-54.614			-5.461
208304.000			-54.613			-5.461
208404.000			-54.613			-5.461
208505.000			-54.614			-5.461
208604.000			-54.612			-5.461
208704.000			-54.611			-5.461
208805.000			-54.609			-5.461
208903.000			-54.610			-5.461
209004.000			-54.610			-5.461
209104.000			-54.610			-5.461
209204.000			-54.609			-5.461
209304.000			-54.609			-5.461
209405.000			-54.609			-5.461
209504.000			-54.607			-5.461
209604.000			-54.608			-5.461
209705.000			-54.607			-5.461
209803.000			-54.606			-5.461
209904.000			-54.606			-5.461
210004.000			-54.607			-5.461
210104.000			-54.606			-5.461
210204.000			-54.605			-5.461
210304.000			-54.604			-5.460
210404.000			-54.603			-5.460
210505.000			-54.603			-5.460
210604.000			-54.602			-5.460
210703.000			-54.602			-5.460
210805.000			-54.602			-5.460
210904.000			-54.601			-5.460
211004.000			-54.600			-5.460
211105.000			-54.599			-5.460
211204.000			-54.599			-5.460
211304.000			-54.598			-5.460
211405.000			-54.598			-5.460
211504.000			-54.597			-5.460
211603.000			-54.598			-5.460
211705.000			-54.596			-5.460
211804.000			-54.596			-5.460
211904.000			-54.595			-5.460
212005.000			-54.595			-5.459
212104.000			-54.595			-5.459
212204.000			-54.595			-5.460
212305.000			-54.595			-5.459
212404.000			-54.593			-5.459
212503.000			-54.592			-5.459
212605.000			-54.593			-5.459
212704.000			-54.593			-5.459
212804.000			-54.593			-5.459
212905.000			-54.592			-5.459
213004.000			-54.592			-5.459
213104.000			-54.590			-5.459
213204.000			-54.590			-5.459
213304.000			-54.589			-5.459
213403.000			-54.588			-5.459
213505.000			-54.588			-5.459
213604.000			-54.588			-5.459
213705.000			-54.588			-5.459
213804.000			-54.586			-5.459
213904.000			-54.586			-5.459
214005.000			-54.586			-5.459
214104.000			-54.585			-5.459
214204.000			-54.584			-5.458
214304.000			-54.584			-5.458
214404.000			-54.584			-5.458
214504.000			-54.583			-5.458
214605.000			-54.582			-5.458
214704.000			-54.582			-5.458
214804.000			-54.582			-5.458
214905.000			-54.581			-5.458
215004.000			-54.581			-5.458
215104.000			-54.581			-5.458
215204.000			-54.580			-5.458
215304.000			-54.580			-5.458
215404.000			-54.579			-5.458
215505.000			-54.579			-5.458
215604.000			-54.579			-5.458
215704.000			-54.578			-5.458
215805.000			-54.577			-5.458
215904.000			-54.576			-5.458
216004.000			-54.576			-5.458
216104.000			-54.575			-5.458
216204.000			-54.575			-5.458
216303.000			-54.575			-5.458
216405.000			-54.575			-5.457
216504.000			-54.574			-5.457
216604.000			-54.574			-5.457
216705.000			-54.574			-5.457
216804.000			-54.572			-5.457
216905.000			-54.572			-5.457
217003.000			-54.572			-5.457
217104.000			-54.571			-5.457
217204.000			-54.571			-5.457
217304.000			-54.571			-5.457
217404.000			-54.571			-5.457
217505.000			-54.570			-5.457
217604.000			-54.569			-5.457
217704.000			-54.568			-5.457
217805.000			-54.567			-5.457
217903.000			-54.567			-5.457
218004.000			-54.567			-5.457
218104.000			-54.568			-5.457
218204.000			-54.566			-5.457
218304.000			-54.565			-5.457
218405.000			-54.566			-5.457
218504.000			-54.565			-5.456
218604.000			-54.564			-5.456
218705.000			-54.563			-5.456
218804.000			-54.563			-5.456
218904.000			-54.562			-5.456
219004.000			-54.561			-5.456
219104.000			-54.562			-5.456
219204.000			-54.561			-5.456
219305.000			-54.560			-5.456
219404.000			-54.560			-5.456
219504.000			-54.560			-5.456
219605.000			-54.560			-5.456
219704.000			-54.560			-5.456
219804.000			-54.559			-5.456
219903.000			-54.559			-5.456
220004.000			-54.559			-5.456
220105.000			-54.557			-5.456
220204.000			-54.556			-5.456
220304.000			-54.556			-5.456
220405.000			-54.557			-5.456
220504.000			-54.556			-5.456
220604.000			-54.556			-5.456
220705.000			-54.555			-5.456
220803.000			-54.554			-5.455
220904.000			-54.554			-5.455
221005.000			-54.554			-5.455
221104.000			-54.554			-5.455
221204.000			-54.552			-5.455
221305.000			-54.552			-5.455
221404.000			-54.551			-5.455
221504.000			-54.550			-5.455
221605.000			-54.549			-5.455
221703.000			-54.549			-5.455
221804.000			-54.550			-5.455
221905.000			-54.548			-5.455
222004.000			-54.548			-5.455
222104.000			-54.549			-5.455
222205.000			-54.547			-5.455
222304.000			-54.547			-5.455
222404.000			-54.547			-5.455
222505.000			-54.546			-5.455
222603.000			-54.545			-5.455
222704.000			-54.545			-5.455
222805.000			-54.544			-5.454
222904.000			-54.545			-5.454
223004.000			-54.545			-5.454
223104.000			-54.544			-5.454
223204.000			-54.545			-5.454
223303.000			-54.544			-5.454
223404.000			-54.544			-5.454
223503.000			-54.542			-5.454
223605.000			-54.541			-5.454
223704.000			-54.542			-5.454
223804.000			-54.541			-5.454
223905.000			-54.540			-5.454
224004.000			-54.540			-5.454
224104.000			-54.538			-5.454
224204.000			-54.538			-5.454
224304.000			-54.537			-5.454
224403.000			-54.537			-5.454
224505.000			-54.538			-5.454
224604.000			-54.538			-5.454
224704.000			-54.537			-5.454
224805.000			-54.535			-5.453
224904.000			-54.535			-5.453
225004.000			-54.535			-5.454
225104.000			-54.534			-5.453
225204.000			-54.534			-5.453
225304.000			-54.534			-5.453
225405.000			-54.533			-5.453
225504.000			-54.532			-5.453
225604.000			-54.533			-5.453
225705.000			-54.531			-5.453
225804.000			-54.530			-5.453
225904.000			-54.530			-5.453
226004.000			-54.531			-5.453
226104.000			-54.530			-5.453
226203.000			-54.529			-5.453
226305.000			-54.529			-5.453
226404.000			-54.528			-5.453
226505.000			-54.528			-5.453
226604.000			-54.528			-5.453
226704.000			-54.527			-5.453
226805.000			-54.527			-5.453
226903.000			-54.527			-5.453
227004.000			-54.526			-5.453
227104.000			-54.525			-5.453
227204.000			-54.526			-5.453
227304.000			-54.525			-5.453
227405.000			-54.524			-5.452
227504.000			-54.523			-5.452
227604.000			-54.524			-5.452
227705.000			-54.523			-5.452
227803.000			-54.522			-5.452
227904.000			-54.522			-5.452
228005.000			-54.521			-5.452
228104.000			-54.520			-5.452
228204.000			-54.520			-5.452
228305.000			-54.520			-5.452
228404.000			-54.519			-5.452
228504.000			-54.520			-5.452
228605.000			-54.521			-5.452
228703.000			-54.519			-5.452
228804.000			-54.518			-5.452
228905.000			-54.516			-5.452
229004.000			-54.516			-5.452
229104.000			-54.516			-5.452
229205.000			-54.515			-5.452
229304.000			-54.516			-5.452
229404.000			-54.515			-5.452
229505.000			-54.514			-5.451
229603.000			-54.514			-5.451
229705.000			-54.514			-5.451
229804.000			-54.514			-5.451
229904.000			-54.513			-5.451
230005.000			-54.514			-5.451
230104.000			-54.513			-5.451
230204.000			-54.512			-5.451
230305.000			-54.511			-5.451
230404.000			-54.511			-5.451
230503.000			-54.512			-5.451
230605.000			-54.511			-5.451
230704.000			-54.509			-5.451
230804.000			-54.509			-5.451
230905.000			-54.509			-5.451
231004.000			-54.508			-5.451
231104.000			-54.508			-5.451
231204.000			-54.508			-5.451
231304.000			-54.508			-5.451
231403.000			-54.506			-5.451
231505.000			-54.506			-5.451
231604.000			-54.506			-5.451
231704.000			-54.505			-5.450
231805.000			-54.505			-5.450
231904.000			-54.506			-5.451
232004.000			-54.505			-5.450
232104.000			-54.504			-5.450
232204.000			-54.504			-5.450
232304.000			-54.504			-5.450
232405.000			-54.504			-5.450
232504.000			-54.502			-5.450
232604.000			-54.502			-5.450
232705.000			-54.502			-5.450
232804.000			-54.501			-5.450
232905.000			-54.501			-5.450
233003.000			-54.500			-5.450
233104.000			-54.500			-5.450
233205.000			-54.499			-5.450
233304.000			-54.498			-5.450
233404.000			-54.498			-5.450
233505.000			-54.499			-5.450
233604.000			-54.497			-5.450
233704.000			-54.497			-5.450
233805.000			-54.495			-5.450
233903.000			-54.495			-5.450
234004.000			-54.495			-5.450
234105.000			-54.496			-5.450
234204.000			-54.495			-5.450
234304.000			-54.495			-5.449
234405.000			-54.493			-5.449
234504.000			-54.493			-5.449
234604.000			-54.493			-5.449
234705.000			-54.492			-5.449
234803.000			-54.492			-5.449
234904.000			-54.491			-5.449
235005.000			-54.491			-5.449
235104.000			-54.491			-5.449
235204.000			-54.491			-5.449
235305.000			-54.490			-5.449
235404.000			-54.489			-5.449
235504.000			-54.489			-5.449
235605.000			-54.489			-5.449
235703.000			-54.488			-5.449
235804.000			-54.487			-5.449
235905.000			-54.486			-5.449
236004.000			-54.486			-5.449
236105.000			-54.487			-5.449
236204.000			-54.487			-5.449
236304.000			-54.486			-5.449
236405.000			-54.485			-5.448
236504.000			-54.485			-5.448
236603.000			-54.483			-5.448
236705.000			-54.483			-5.448
236804.000			-54.482			-5.448
236904.000			-54.481			-5.448
237005.000			-54.481			-5.448
237104.000			-54.482			-5.448
237204.000			-54.482			-5.448
237305.000			-54.480			-5.448
237404.000			-54.480			-5.448
237503.000			-54.480			-5.448
237605.000			-54.479			-5.448
237703.000			-54.479			-5.448
237804.000			-54.479			-5.448
237905.000			-54.478			-5.448
238004.000			-54.477			-5.448
238104.000			-54.477			-5.448
238205.000			-54.478			-5.448
238304.000			-54.477			-5.448
238404.000			-54.476			-5.448
238505.000			-54.476			-5.448
238603.000			-54.476			-5.448
238704.000			-54.474			-5.447
238805.000			-54.475			-5.447
238904.000			-54.475			-5.448
239004.000			-54.473			-5.447
239104.000			-54.472			-5.447
239204.000			-54.472			-5.447
239305.000			-54.472			-5.447
239404.000			-54.472			-5.447
239503.000			-54.471			-5.447
239605.000			-54.472			-5.447
239704.000			-54.471			-5.447
239804.000			-54.470			-5.447
239905.000			-54.469			-5.447
240004.000			-54.469			-5.447
240104.000			-54.469			-5.447
240205.000			-54.469			-5.447
240304.000			-54.470			-5.447
240403.000			-54.469			-5.447
240505.000			-54.468			-5.447
240604.000			-54.468			-5.447
240704.000			-54.468			-5.447
240805.000			-54.466			-5.447
240904.000			-54.464			-5.446
241004.000			-54.465			-5.447
241105.000			-54.465			-5.446
241204.000			-54.463			-5.446
241303.000			-54.463			-5.446
241405.000			-54.463			-5.446
241504.000			-54.463			-5.446
241604.000			-54.461			-5.446
241705.000			-54.462			-5.446
241804.000			-54.462			-5.446
241904.000			-54.462			-5.446
242005.000			-54.461			-5.446
242104.000			-54.462			-5.446
242203.000			-54.461			-5.446
242305.000			-54.459			-5.446
242404.000			-54.460			-5.446
242505.000			-54.458			-5.446
242604.000			-54.458			-5.446
242704.000			-54.458			-5.446
242805.000			-54.457			-5.446
242904.000			-54.457			-5.446
243004.000			-54.457			-5.446
243104.000			-54.456			-5.446
243204.000			-54.455			-5.446
243304.000			-54.455			-5.445
243405.000			-54.455			-5.445
243504.000			-54.454			-5.445
243604.000			-54.453			-5.445
243705.000			-54.454			-5.445
243804.000			-54.454			-5.445
243904.000			-54.452			-5.445
244004.000			-54.453			-5.445
244104.000			-54.452			-5.445
244204.000			-54.451			-5.445
244305.000			-54.451			-5.445
244404.000			-54.451			-5.445
244504.000			-54.451			-5.445
244605.000			-54.449			-5.445
244704.000			-54.450			-5.445
244804.000			-54.450			-5.445
244904.000			-54.449			-5.445
245004.000			-54.447			-5.445
245104.000			-54.448			-5.445
245205.000			-54.448			-5.445
245304.000			-54.446			-5.445
245404.000			-54.447			-5.445
245505.000			-54.446			-5.445
245604.000			-54.446			-5.445
245705.000			-54.445			-5.444
245803.000			-54.445			-5.444
245904.000			-54.444			-5.444
246005.000			-54.443			-5.444
246104.000			-54.443			-5.444
246204.000			-54.443			-5.444
246305.000			-54.443			-5.444
246404.000			-54.442			-5.444
246504.000			-54.442			-5.444
246605.000			-54.442			-5.444
246703.000			-54.441			-5.444
246804.000			-54.439			-5.444
246905.000			-54.439			-5.444
247004.000			-54.439			-5.444
247104.000			-54.439			-5.444
247205.000			-54.439			-5.444
247304.000			-54.438			-5.444
247404.000			-54.438			-5.444
247505.000			-54.438			-5.444
247603.000			-54.438			-5.444
247704.000			-54.437			-5.444
247805.000			-54.437			-5.444
247904.000			-54.436			-5.444
248004.000			-54.436			-5.444
248105.000			-54.436			-5.444
248204.000			-54.434			-5.443
248304.000			-54.434			-5.443
248405.000			-54.433			-5.443
248503.000			-54.434			-5.443
248604.000			-54.433			-5.443
248705.000			-54.434			-5.443
248804.000			-54.433			-5.443
248905.000			-54.432			-5.443
249004.000			-54.431			-5.443
249104.000			-54.431			-5.443
249205.000			-54.431			-5.443
249304.000			-54.431			-5.443
249403.000			-54.431			-5.443
249505.000			-54.430			-5.443
249604.000			-54.429			-5.443
249704.000			-54.428			-5.443
249805.000			-54.427			-5.443
249904.000			-54.428			-5.443
250004.000			-54.428			-5.443
250105.000			-54.427			-5.443
250204.000			-54.425			-5.443
250303.000			-54.426			-5.443
250405.000			-54.426			-5.443
250504.000			-54.426			-5.443
250604.000			-54.426			-5.443
250705.000			-54.424			-5.442
250804.000			-54.424			-5.442
250904.000			-54.425			-5.443
251005.000			-54.424			-5.442
251104.000			-54.423			-5.442
251203.000			-54.422			-5.442
251305.000			-54.422			-5.442
251404.000			-54.422			-5.442
251504.000			-54.422			-5.442
251605.000			-54.421			-5.442
251704.000			-54.421			-5.442
251804.000			-54.420			-5.442
251904.000			-54.421			-5.442
252004.000			-54.419			-5.442
252103.000			-54.419			-5.442
252204.000			-54.419			-5.442
252304.000			-54.418			-5.442
252405.000			-54.418			-5.442
252504.000			-54.417			-5.442
252604.000			-54.418			-5.442
252705.000			-54.418			-5.442
252804.000			-54.417			-5.442
252904.000			-54.416			-5.442
253004.000			-54.415			-5.441
253104.000			-54.414			-5.441
253204.000			-54.413			-5.441
253305.000			-54.413			-5.441
253404.000			-54.413			-5.441
253504.000			-54.413			-5.441
253605.000			-54.412			-5.441
253704.000			-54.412			-5.441
253804.000			-54.412			-5.441
253904.000			-54.411			-5.441
254004.000			-54.410			-5.441
254104.000			-54.410			-5.441
254205.000			-54.410			-5.441
254304.000			-54.410			-5.441
254404.000			-54.409			-5.441
254505.000			-54.408			-5.441
254604.000			-54.408			-5.441
254704.000			-54.408			-5.441
254804.000			-54.409			-5.441
254904.000			-54.409			-5.441
255004.000			-54.407			-5.441
255104.000			-54.407			-5.441
255204.000			-54.406			-5.441
255305.000			-54.405			-5.441
255404.000			-54.405			-5.441
255504.000			-54.405			-5.441
255605.000			-54.405			-5.440
255703.000			-54.405			-5.440
255804.000			-54.404			-5.440
255905.000			-54.403			-5.440
256004.000			-54.404			-5.440
256104.000			-54.404			-5.440
256205.000			-54.403			-5.440
256304.000			-54.402			-5.440
256404.000			-54.402			-5.440
256505.000			-54.402			-5.440
256603.000			-54.400			-5.440
256704.000			-54.400			-5.440
256805.000			-54.399			-5.440
256904.000			-54.400			-5.440
257004.000			-54.399			-5.440
257105.000			-54.398			-5.440
257204.000			-54.398			-5.440
257304.000			-54.397			-5.440
257405.000			-54.399			-5.440
257503.000			-54.398			-5.440
257604.000			-54.398			-5.440
257705.000			-54.397			-5.440
257804.000			-54.395			-5.440
257904.000			-54.395			-5.440
258005.000			-54.395			-5.439
258104.000			-54.395			-5.439
258204.000			-54.394			-5.439
258305.000			-54.393			-5.439
258403.000			-54.394			-5.439
258505.000			-54.392			-5.439
258604.000			-54.392			-5.439
258704.000			-54.392			-5.439
258805.000			-54.392			-5.439
258904.000			-54.391			-5.439
259004.000			-54.389			-5.439
259105.000			-54.389			-5.439
259204.000			-54.389			-5.439
259304.000			-54.390			-5.439
259405.000			-54.390			-5.439
259503.000			-54.390			-5.439
259604.000			-54.389			-5.439
259705.000			-54.387			-5.439
259804.000			-54.387			-5.439
259904.000			-54.387			-5.439
260005.000			-54.387			-5.439
260104.000			-54.387			-5.439
260204.000			-54.386			-5.439
260305.000			-54.385			-5.438
260403.000			-54.384			-5.438
260504.000			-54.385			-5.438
260605.000			-54.385			-5.438
260704.000			-54.384			-5.438
260804.000			-54.384			-5.438
260905.000			-54.384			-5.438
261004.000			-54.384			-5.438
261104.000			-54.383			-5.438
261205.000			-54.383			-5.438
261303.000			-54.382			-5.438
261404.000			-54.381			-5.438
261505.000			-54.381			-5.438
261604.000			-54.380			-5.438
261705.000			-54.380			-5.438
261804.000			-54.379			-5.438
261904.000			-54.379			-5.438
262005.000			-54.379			-5.438
262104.000			-54.378			-5.438
262203.000			-54.378			-5.438
262305.000			-54.377			-5.438
262404.000			-54.377			-5.438
262504.000			-54.377			-5.438
262605.000			-54.377			-5.438
262704.000			-54.376			-5.438
262804.000			-54.375			-5.437
262905.000			-54.375			-5.438
263004.000			-54.375			-5.438
263104.000			-54.376			-5.438
263205.000			-54.375			-5.438
263303.000			-54.374			-5.437
263404.000			-54.373			-5.437
263505.000			-54.372			-5.437
263604.000			-54.372			-5.437
263704.000			-54.371			-5.437
263805.000			-54.372			-5.437
263904.000			-54.372			-5.437
264004.000			-54.371			-5.437
264105.000			-54.370			-5.437
264203.000			-54.369			-5.437
264304.000			-54.369			-5.437
264405.000			-54.369			-5.437
264504.000			-54.369			-5.437
264604.000			-54.368			-5.437
264704.000			-54.368			-5.437
264804.000			-54.369			-5.437
264905.000			-54.367			-5.437
265004.000			-54.368			-5.437
265103.000			-54.366			-5.437
265205.000			-54.366			-5.437
265304.000			-54.366			-5.437
265404.000			-54.365			-5.436
265505.000			-54.365			-5.436
265604.000			-54.365			-5.436
265704.000			-54.364			-5.436
265805.000			-54.365			-5.436
265904.000			-54.364			-5.436
266003.000			-54.362			-5.436
266105.000			-54.363			-5.436
266204.000			-54.362			-5.436
266304.000			-54.361			-5.436
266405.000			-54.361			-5.436
266504.000			-54.361			-5.436
266604.000			-54.361			-5.436
266705.000			-54.360			-5.436
266804.000			-54.359			-5.436
266903.000			-54.359			-5.436
267005.000			-54.359			-5.436
267104.000			-54.359			-5.436
267204.000			-54.358			-5.436
267305.000			-54.358			-5.436
267404.000			-54.359			-5.436
267504.000			-54.358			-5.436
267605.000			-54.358			-5.436
267704.000			-54.357			-5.436
267803.000			-54.357			-5.436
267905.000			-54.356			-5.436
268003.000			-54.356			-5.436
268105.000			-54.355			-5.436
268204.000			-54.354			-5.435
268304.000			-54.354			-5.435
268405.000			-54.354			-5.435
268504.000			-54.353			-5.435
268604.000			-54.353			-5.435
268705.000			-54.352			-5.435
268804.000			-54.353			-5.435
268903.000			-54.354			-5.435
269005.000			-54.351			-5.435
269104.000			-54.351			-5.435
269204.000			-54.352			-5.435
269305.000			-54.352			-5.435
269404.000			-54.351			-5.435
269504.000			-54.350			-5.435
269605.000			-54.349			-5.435
269704.000			-54.349			-5.435
269803.000			-54.349			-5.435
269905.000			-54.349			-5.435
270004.000			-54.348			-5.435
270104.000			-54.348			-5.435
270205.000			-54.346			-5.435
270304.000			-54.345			-5.435
270404.000			-54.346			-5.435
270505.000			-54.345			-5.435
270604.000			-54.346			-5.435
270703.000			-54.346			-5.435
270805.000			-54.345			-5.434
270904.000			-54.346			-5.435
271004.000			-54.345			-5.434
271105.000			-54.344			-5.434
271204.000			-54.344			-5.434
271305.000			-54.343			-5.434
271404.000			-54.342			-5.434
271504.000			-54.342			-5.434
271604.000			-54.341			-5.434
271704.000			-54.342			-5.434
271804.000			-54.342			-5.434
271905.000			-54.340			-5.434
272004.000			-54.340			-5.434
272104.000			-54.340			-5.434
272205.000			-54.339			-5.434
272304.000			-54.339			-5.434
272404.000			-54.337			-5.434
272504.000			-54.338			-5.434
272604.000			-54.337			-5.434
272704.000			-54.337			-5.434
272805.000			-54.337			-5.434
272904.000			-54.336			-5.434
273004.000			-54.336			-5.434
273105.000			-54.336			-5.434
273204.000			-54.336			-5.434
273304.000			-54.335			-5.434
273404.000			-54.335			-5.434
273504.000			-54.336			-5.434
273604.000			-54.334			-5.433
273705.000			-54.333			-5.433
273804.000			-54.334			-5.433
273904.000			-54.333			-5.433
274005.000			-54.332			-5.433
274104.000			-54.331			-5.433
274204.000			-54.331			-5.433
274303.000			-54.332			-5.433
274404.000			-54.332			-5.433
274505.000			-54.330			-5.433
274604.000			-54.330			-5.433
274704.000			-54.329			-5.433
274805.000			-54.329			-5.433
274904.000			-54.328			-5.433
275004.000			-54.329			-5.433
275105.000			-54.329			-5.433
275203.000			-54.328			-5.433
275304.000			-54.327			-5.433
275405.000			-54.327			-5.433
275504.000			-54.327			-5.433
275604.000			-54.326			-5.433
275705.000			-54.326			-5.433
275804.000			-54.326			-5.433
275904.000			-54.326			-5.433
276005.000			-54.324			-5.432
276103.000			-54.323			-5.432
276204.000			-54.323			-5.432
276305.000			-54.323			-5.432
276404.000			-54.323			-5.432
276504.000			-54.322			-5.432
276605.000			-54.323			-5.432
276704.000			-54.322			-5.432
276804.000			-54.321			-5.432
276905.000			-54.320			-5.432
277003.000			-54.320			-5.432
277104.000			-54.320			-5.432
277205.000			-54.320			-5.432
277304.000			-54.321			-5.432
277404.000			-54.321			-5.432
277504.000			-54.320			-5.432
277604.000			-54.319			-5.432
277705.000			-54.318			-5.432
277804.000			-54.318			-5.432
277903.000			-54.318			-5.432
278005.000			-54.318			-5.432
278104.000			-54.317			-5.432
278204.000			-54.316			-5.432
278305.000			-54.316			-5.432
278404.000			-54.316			-5.432
278504.000			-54.315			-5.432
278605.000			-54.315			-5.431
278704.000			-54.314			-5.431
278803.000			-54.314			-5.431
278905.000			-54.314			-5.431
279004.000			-54.313			-5.431
279104.000			-54.313			-5.431
279205.000			-54.313			-5.431
279304.000			-54.313			-5.431
279404.000			-54.313			-5.431
279505.000			-54.312			-5.431
279604.000			-54.311			-5.431
279703.000			-54.312			-5.431
279805.000			-54.311			-5.431
279904.000			-54.310			-5.431
280004.000			-54.310			-5.431
280105.000			-54.309			-5.431
280204.000			-54.308			-5.431
280304.000			-54.308			-5.431
280405.000			-54.309			-5.431
280504.000			-54.309			-5.431
280603.000			-54.308			-5.431
280705.000			-54.308			-5.431
280804.000			-54.308			-5.431
280905.000			-54.307			-5.431
281004.000			-54.307			-5.431
281104.000			-54.305			-5.430
281205.000			-54.305			-5.431
281304.000			-54.305			-5.431
281404.000			-54.305			-5.431
281504.000			-54.305			-5.430
281604.000			-54.304			-5.430
281704.000			-54.305			-5.430
281805.000			-54.303			-5.430
281904.000			-54.303			-5.430
282004.000			-54.303			-5.430
282105.000			-54.303			-5.430
282204.000			-54.303			-5.430
282304.000			-54.302			-5.430
282404.000			-54.303			-5.430
282504.000			-54.301			-5.430
282604.000			-54.300			-5.430
282705.000			-54.299			-5.430
282804.000			-54.299			-5.430
282904.000			-54.299			-5.430
283005.000			-54.300			-5.430
283104.000			-54.299			-5.430
283204.000			-54.297			-5.430
283304.000			-54.299			-5.430
283404.000			-54.298			-5.430
283504.000			-54.296			-5.430
283605.000			-54.296			-5.430
283704.000			-54.296			-5.430
283804.000			-54.297			-5.430
283905.000			-54.296			-5.430
284004.000			-54.296			-5.430
284105.000			-54.295			-5.430
284203.000			-54.294			-5.429
284304.000			-54.293			-5.429
284405.000			-54.293			-5.429
284504.000			-54.293			-5.429
284604.000			-54.292			-5.429
284705.000			-54.292			-5.429
284804.000			-54.293			-5.429
284904.000			-54.292			-5.429
285005.000			-54.291			-5.429
285103.000			-54.291			-5.429
285204.000			-54.291			-5.429
285305.000			-54.290			-5.429
285404.000			-54.291			-5.429
285504.000			-54.290			-5.429
285605.000			-54.290			-5.429
285704.000			-54.290			-5.429
285804.000			-54.288			-5.429
285905.000			-54.287			-5.429
286003.000			-54.288			-5.429
286104.000			-54.287			-5.429
286204.000			-54.286			-5.429
286304.000			-54.288			-5.429
286404.000			-54.287			-5.429
286505.000			-54.286			-5.429
286604.000			-54.286			-5.429
286704.000			-54.286			-5.429
286805.000			-54.285			-5.429
286903.000			-54.283			-5.428
287004.000			-54.282			-5.428
287103.000			-54.283			-5.428
287204.000			-54.283			-5.428
287305.000			-54.283			-5.428
287404.000			-54.283			-5.428
287504.000			-54.282			-5.428
287605.000			-54.282			-5.428
287704.000			-54.281			-5.428
287804.000			-54.281			-5.428
287905.000			-54.280			-5.428
288003.000			-54.279			-5.428
288104.000			-54.279			-5.428
288205.000			-54.279			-5.428
288304.000			-54.279			-5.428
288404.000			-54.279			-5.428
288505.000			-54.279			-5.428
288604.000			-54.278			-5.428
288704.000			-54.277			-5.428
288805.000			-54.277			-5.428
288904.000			-54.277			-5.428
289004.000			-54.278			-5.428
289104.000			-54.278			-5.428
289204.000			-54.277			-5.428
289304.000			-54.276			-5.428
289405.000			-54.275			-5.428
289504.000			-54.274			-5.427
289604.000			-54.274			-5.427
289705.000			-54.274			-5.427
289804.000			-54.275			-5.427
289904.000			-54.275			-5.427
290004.000			-54.274			-5.427
290104.000			-54.273			-5.427
290204.000			-54.273			-5.427
290304.000			-54.273			-5.427
290404.000			-54.273			-5.427
290505.000			-54.272			-5.427
290604.000			-54.271			-5.427
290704.000			-54.271			-5.427
290805.000			-54.269			-5.427
290903.000			-54.268			-5.427
291004.000			-54.270			-5.427
291105.000			-54.269			-5.427
291204.000			-54.267			-5.427
291304.000			-54.269			-5.427
291405.000			-54.269			-5.427
291504.000			-54.268			-5.427
291604.000			-54.267			-5.427
291705.000			-54.267			-5.427
291803.000			-54.267			-5.427
291904.000			-54.267			-5.427
292004.000			-54.266			-5.427
292104.000			-54.265			-5.426
292204.000			-54.265			-5.426
292305.000			-54.265			-5.427
292404.000			-54.265			-5.426
292504.000			-54.263			-5.426
292605.000			-54.263			-5.426
292703.000			-54.264			-5.426
292804.000			-54.263			-5.426
292904.000			-54.263			-5.426
293004.000			-54.263			-5.426
293104.000			-54.263			-5.426
293205.000			-54.262			-5.426
293304.000			-54.262			-5.426
293404.000			-54.261			-5.426
293505.000			-54.260			-5.426
293603.000			-54.261			-5.426
293705.000			-54.260			-5.426
293804.000			-54.260			-5.426
293904.000			-54.259			-5.426
294005.000			-54.259			-5.426
294104.000			-54.258			-5.426
294204.000			-54.259			-5.426
294305.000			-54.258			-5.426
294404.000			-54.257			-5.426
294503.000			-54.256			-5.426
294605.000			-54.256			-5.426
294703.000			-54.256			-5.426
294804.000			-54.255			-5.425
294905.000			-54.255			-5.425
295004.000			-54.256			-5.426
295104.000			-54.256			-5.426
295205.000			-54.255			-5.426
295304.000			-54.255			-5.425
295404.000			-54.254			-5.425
295505.000			-54.253			-5.425
295603.000			-54.253			-5.425
295704.000			-54.253			-5.425
295805.000			-54.253			-5.425
295904.000			-54.251			-5.425
296004.000			-54.251			-5.425
296105.000			-54.252			-5.425
296204.000			-54.251			-5.425
296304.000			-54.251			-5.425
296405.000			-54.250			-5.425
296503.000			-54.251			-5.425
296604.000			-54.250			-5.425
296705.000			-54.249			-5.425
296804.000			-54.249			-5.425
296905.000			-54.248			-5.425
297004.000			-54.248			-5.425
297104.000			-54.248			-5.425
297205.000			-54.247			-5.425
297304.000			-54.247			-5.425
297403.000			-54.247			-5.425
297505.000			-54.246			-5.425
297603.000			-54.246			-5.425
297704.000			-54.247			-5.425
297805.000			-54.246			-5.425
297904.000			-54.245			-5.425
298004.000			-54.244			-5.424
298105.000			-54.242			-5.424
298204.000			-54.242			-5.424
298303.000			-54.243			-5.424
298405.000			-54.242			-5.424
298503.000			-54.243			-5.424
298604.000			-54.243			-5.424
298705.000			-54.243			-5.424
298804.000			-54.242			-5.424
298904.000			-54.241			-5.424
299005.000			-54.242			-5.424
299104.000			-54.242			-5.424
299203.000			-54.242			-5.424
299305.000			-54.242			-5.424
299403.000			-54.240			-5.424
299504.000			-54.239			-5.424
299605.000			-54.239			-5.424
299704.000			-54.238			-5.424
299804.000			-54.238			-5.424
299904.000			-54.239			-5.424
