# Acquired on 29/01/2024 11:23:06 
# SPIDER: Creep_7mm_HM077x145x38AB-1
# CREEP MEASUREMENT

# time [ms]		force [N]		stiffness [N/mm]
0.000			-23.798			-3.400
105.000			-24.031			-3.433
204.000			-24.013			-3.430
304.000			-23.923			-3.418
405.000			-23.859			-3.408
504.000			-23.807			-3.401
604.000			-23.763			-3.395
705.000			-23.691			-3.384
804.000			-23.660			-3.380
904.000			-23.632			-3.376
1003.000			-23.607			-3.372
1104.000			-23.583			-3.369
1205.000			-23.559			-3.366
1304.000			-23.537			-3.362
1404.000			-23.516			-3.359
1504.000			-23.478			-3.354
1604.000			-23.460			-3.351
1704.000			-23.443			-3.349
1805.000			-23.427			-3.347
1904.000			-23.412			-3.345
2004.000			-23.398			-3.343
2105.000			-23.384			-3.341
2203.000			-23.355			-3.336
2304.000			-23.343			-3.335
2405.000			-23.331			-3.333
2504.000			-23.319			-3.331
2604.000			-23.308			-3.330
2704.000			-23.296			-3.328
2804.000			-23.285			-3.326
2903.000			-23.265			-3.324
3005.000			-23.254			-3.322
3104.000			-23.245			-3.321
3204.000			-23.236			-3.319
3305.000			-23.227			-3.318
3403.000			-23.218			-3.317
3504.000			-23.209			-3.316
3605.000			-23.191			-3.313
3704.000			-23.183			-3.312
3804.000			-23.175			-3.311
3905.000			-23.166			-3.309
4004.000			-23.158			-3.308
4103.000			-23.152			-3.307
4205.000			-23.143			-3.306
4304.000			-23.129			-3.304
4405.000			-23.123			-3.303
4504.000			-23.115			-3.302
4603.000			-23.108			-3.301
4705.000			-23.102			-3.300
4804.000			-23.096			-3.299
4904.000			-23.089			-3.298
5005.000			-23.081			-3.297
5104.000			-23.070			-3.296
5204.000			-23.064			-3.295
5304.000			-23.056			-3.294
5404.000			-23.051			-3.293
5504.000			-23.046			-3.292
5605.000			-23.040			-3.291
5704.000			-23.034			-3.291
5803.000			-23.022			-3.289
5905.000			-23.017			-3.288
6004.000			-23.012			-3.287
6104.000			-23.007			-3.287
6205.000			-23.002			-3.286
6304.000			-22.996			-3.285
6404.000			-22.991			-3.284
6504.000			-22.982			-3.283
6604.000			-22.977			-3.282
6704.000			-22.971			-3.282
6805.000			-22.965			-3.281
6904.000			-22.960			-3.280
7003.000			-22.956			-3.279
7105.000			-22.952			-3.279
7204.000			-22.943			-3.278
7304.000			-22.938			-3.277
7405.000			-22.933			-3.276
7504.000			-22.929			-3.276
7605.000			-22.924			-3.275
7703.000			-22.919			-3.274
7804.000			-22.916			-3.274
7905.000			-22.912			-3.273
8004.000			-22.904			-3.272
8104.000			-22.900			-3.271
8205.000			-22.894			-3.271
8304.000			-22.889			-3.270
8403.000			-22.886			-3.269
8505.000			-22.882			-3.269
8604.000			-22.879			-3.268
8704.000			-22.871			-3.267
8805.000			-22.867			-3.267
8904.000			-22.864			-3.266
9004.000			-22.860			-3.266
9104.000			-22.855			-3.265
9204.000			-22.851			-3.264
9304.000			-22.848			-3.264
9405.000			-22.841			-3.263
9504.000			-22.838			-3.263
9603.000			-22.834			-3.262
9705.000			-22.830			-3.261
9804.000			-22.827			-3.261
9904.000			-22.824			-3.261
10005.000			-22.820			-3.260
10104.000			-22.814			-3.259
10204.000			-22.810			-3.259
10304.000			-22.806			-3.258
10404.000			-22.803			-3.258
10504.000			-22.799			-3.257
10604.000			-22.796			-3.257
10704.000			-22.793			-3.256
10805.000			-22.788			-3.255
10904.000			-22.785			-3.255
11003.000			-22.780			-3.254
11105.000			-22.777			-3.254
11204.000			-22.775			-3.254
11304.000			-22.772			-3.253
11405.000			-22.768			-3.253
11504.000			-22.765			-3.252
11604.000			-22.759			-3.251
11704.000			-22.757			-3.251
11804.000			-22.753			-3.250
11904.000			-22.750			-3.250
12005.000			-22.747			-3.250
12104.000			-22.744			-3.249
12203.000			-22.741			-3.249
12305.000			-22.736			-3.248
12404.000			-22.733			-3.248
12504.000			-22.730			-3.247
12605.000			-22.727			-3.247
12704.000			-22.724			-3.246
12804.000			-22.722			-3.246
12904.000			-22.719			-3.246
13004.000			-22.713			-3.245
13104.000			-22.711			-3.244
13205.000			-22.708			-3.244
13304.000			-22.706			-3.244
13404.000			-22.701			-3.243
13505.000			-22.699			-3.243
13603.000			-22.697			-3.242
13704.000			-22.691			-3.242
13805.000			-22.689			-3.241
13904.000			-22.686			-3.241
14005.000			-22.685			-3.241
14104.000			-22.681			-3.240
14204.000			-22.678			-3.240
14304.000			-22.677			-3.240
14404.000			-22.676			-3.239
14504.000			-22.669			-3.238
14605.000			-22.667			-3.238
14704.000			-22.665			-3.238
14804.000			-22.663			-3.238
14905.000			-22.659			-3.237
15003.000			-22.657			-3.237
15104.000			-22.655			-3.236
15205.000			-22.650			-3.236
15304.000			-22.648			-3.235
15404.000			-22.646			-3.235
15504.000			-22.642			-3.235
15604.000			-22.641			-3.234
15704.000			-22.639			-3.234
15805.000			-22.636			-3.234
15904.000			-22.633			-3.233
16004.000			-22.630			-3.233
16105.000			-22.627			-3.232
16203.000			-22.625			-3.232
16304.000			-22.623			-3.232
16405.000			-22.622			-3.232
16504.000			-22.620			-3.231
16604.000			-22.614			-3.231
16705.000			-22.613			-3.230
16804.000			-22.610			-3.230
16903.000			-22.608			-3.230
17005.000			-22.606			-3.229
17104.000			-22.603			-3.229
17205.000			-22.602			-3.229
17304.000			-22.596			-3.228
17404.000			-22.594			-3.228
17505.000			-22.593			-3.228
17603.000			-22.592			-3.227
17704.000			-22.590			-3.227
17805.000			-22.587			-3.227
17904.000			-22.585			-3.226
18004.000			-22.584			-3.226
18105.000			-22.579			-3.226
18204.000			-22.577			-3.225
18303.000			-22.574			-3.225
18405.000			-22.572			-3.225
18504.000			-22.571			-3.224
18604.000			-22.569			-3.224
18705.000			-22.567			-3.224
18804.000			-22.564			-3.223
18904.000			-22.561			-3.223
19004.000			-22.560			-3.223
19104.000			-22.557			-3.222
19204.000			-22.555			-3.222
19305.000			-22.553			-3.222
19404.000			-22.551			-3.222
19503.000			-22.548			-3.221
19605.000			-22.546			-3.221
19704.000			-22.544			-3.221
19804.000			-22.542			-3.220
19905.000			-22.541			-3.220
20004.000			-22.539			-3.220
20104.000			-22.537			-3.220
20203.000			-22.533			-3.219
20304.000			-22.531			-3.219
20405.000			-22.530			-3.219
20504.000			-22.529			-3.218
20604.000			-22.526			-3.218
20705.000			-22.524			-3.218
20804.000			-22.522			-3.217
20903.000			-22.520			-3.217
21005.000			-22.517			-3.217
21104.000			-22.515			-3.216
21204.000			-22.513			-3.216
21305.000			-22.512			-3.216
21404.000			-22.511			-3.216
21504.000			-22.509			-3.216
21604.000			-22.507			-3.215
21704.000			-22.503			-3.215
21804.000			-22.502			-3.215
21905.000			-22.501			-3.214
22004.000			-22.499			-3.214
22103.000			-22.497			-3.214
22205.000			-22.495			-3.214
22304.000			-22.494			-3.213
22404.000			-22.490			-3.213
22505.000			-22.488			-3.213
22604.000			-22.487			-3.212
22704.000			-22.485			-3.212
22804.000			-22.484			-3.212
22904.000			-22.482			-3.212
23004.000			-22.481			-3.212
23105.000			-22.477			-3.211
23204.000			-22.475			-3.211
23304.000			-22.474			-3.211
23405.000			-22.473			-3.210
23503.000			-22.471			-3.210
23605.000			-22.469			-3.210
23704.000			-22.468			-3.210
23804.000			-22.465			-3.209
23905.000			-22.463			-3.209
24004.000			-22.462			-3.209
24104.000			-22.460			-3.209
24204.000			-22.458			-3.208
24304.000			-22.457			-3.208
24404.000			-22.455			-3.208
24505.000			-22.453			-3.208
24604.000			-22.450			-3.207
24704.000			-22.449			-3.207
24805.000			-22.447			-3.207
24903.000			-22.445			-3.206
25004.000			-22.444			-3.206
25105.000			-22.443			-3.206
25204.000			-22.441			-3.206
25304.000			-22.438			-3.205
25404.000			-22.437			-3.205
25504.000			-22.436			-3.205
25604.000			-22.434			-3.205
25705.000			-22.432			-3.205
25804.000			-22.431			-3.204
25904.000			-22.430			-3.204
26005.000			-22.426			-3.204
26103.000			-22.426			-3.204
26204.000			-22.424			-3.203
26305.000			-22.423			-3.203
26404.000			-22.422			-3.203
26504.000			-22.419			-3.203
26604.000			-22.418			-3.203
26704.000			-22.416			-3.202
26804.000			-22.414			-3.202
26904.000			-22.413			-3.202
27004.000			-22.411			-3.202
27105.000			-22.410			-3.201
27204.000			-22.408			-3.201
27303.000			-22.407			-3.201
27405.000			-22.404			-3.201
27504.000			-22.403			-3.200
27604.000			-22.401			-3.200
27705.000			-22.400			-3.200
27804.000			-22.399			-3.200
27904.000			-22.396			-3.199
28004.000			-22.395			-3.199
28104.000			-22.394			-3.199
28204.000			-22.392			-3.199
28305.000			-22.390			-3.199
28404.000			-22.390			-3.199
28504.000			-22.388			-3.198
28605.000			-22.387			-3.198
28703.000			-22.386			-3.198
28804.000			-22.384			-3.198
28905.000			-22.381			-3.197
29004.000			-22.379			-3.197
29104.000			-22.378			-3.197
29205.000			-22.377			-3.197
29304.000			-22.376			-3.197
29403.000			-22.374			-3.196
29505.000			-22.374			-3.196
29604.000			-22.370			-3.196
29704.000			-22.369			-3.196
29805.000			-22.368			-3.195
29904.000			-22.367			-3.195
30005.000			-22.366			-3.195
30103.000			-22.364			-3.195
30204.000			-22.363			-3.195
30305.000			-22.360			-3.194
30404.000			-22.359			-3.194
30504.000			-22.359			-3.194
30605.000			-22.358			-3.194
30704.000			-22.356			-3.194
30803.000			-22.355			-3.194
30905.000			-22.354			-3.193
31004.000			-22.354			-3.193
31104.000			-22.350			-3.193
31205.000			-22.348			-3.193
31303.000			-22.347			-3.192
31404.000			-22.345			-3.192
31505.000			-22.344			-3.192
31604.000			-22.344			-3.192
31704.000			-22.343			-3.192
31805.000			-22.340			-3.191
31904.000			-22.338			-3.191
32003.000			-22.337			-3.191
32105.000			-22.336			-3.191
32204.000			-22.335			-3.191
32304.000			-22.334			-3.191
32405.000			-22.333			-3.190
32504.000			-22.331			-3.190
32604.000			-22.329			-3.190
32704.000			-22.327			-3.190
32804.000			-22.326			-3.189
32904.000			-22.325			-3.189
33004.000			-22.324			-3.189
33104.000			-22.323			-3.189
33205.000			-22.321			-3.189
33304.000			-22.320			-3.189
33403.000			-22.318			-3.188
33505.000			-22.317			-3.188
33604.000			-22.316			-3.188
33704.000			-22.316			-3.188
33805.000			-22.314			-3.188
33904.000			-22.311			-3.187
34004.000			-22.310			-3.187
34104.000			-22.309			-3.187
34204.000			-22.308			-3.187
34304.000			-22.306			-3.187
34405.000			-22.304			-3.186
34504.000			-22.303			-3.186
34603.000			-22.304			-3.186
34705.000			-22.300			-3.186
34804.000			-22.299			-3.186
34904.000			-22.299			-3.186
35005.000			-22.298			-3.185
35104.000			-22.297			-3.185
35204.000			-22.295			-3.185
35304.000			-22.294			-3.185
35404.000			-22.292			-3.185
35504.000			-22.291			-3.184
35605.000			-22.290			-3.184
35704.000			-22.289			-3.184
35804.000			-22.289			-3.184
35905.000			-22.287			-3.184
36003.000			-22.285			-3.184
36104.000			-22.283			-3.183
36205.000			-22.282			-3.183
36304.000			-22.280			-3.183
36405.000			-22.280			-3.183
36503.000			-22.280			-3.183
36604.000			-22.279			-3.183
36705.000			-22.277			-3.182
36804.000			-22.274			-3.182
36904.000			-22.273			-3.182
37005.000			-22.273			-3.182
37104.000			-22.272			-3.182
37203.000			-22.271			-3.182
37305.000			-22.269			-3.181
37404.000			-22.267			-3.181
37504.000			-22.267			-3.181
37605.000			-22.266			-3.181
37704.000			-22.264			-3.181
37804.000			-22.263			-3.180
37904.000			-22.262			-3.180
38004.000			-22.261			-3.180
38104.000			-22.260			-3.180
38205.000			-22.259			-3.180
38304.000			-22.256			-3.179
38404.000			-22.256			-3.179
38505.000			-22.255			-3.179
38603.000			-22.254			-3.179
38704.000			-22.254			-3.179
38805.000			-22.253			-3.179
38904.000			-22.251			-3.179
39004.000			-22.250			-3.179
39104.000			-22.249			-3.178
39204.000			-22.247			-3.178
39303.000			-22.246			-3.178
39405.000			-22.245			-3.178
39504.000			-22.245			-3.178
39605.000			-22.243			-3.178
39704.000			-22.241			-3.177
39803.000			-22.241			-3.177
39905.000			-22.240			-3.177
40004.000			-22.239			-3.177
40104.000			-22.237			-3.177
40205.000			-22.236			-3.177
40304.000			-22.236			-3.177
40404.000			-22.234			-3.176
40504.000			-22.233			-3.176
40604.000			-22.232			-3.176
40704.000			-22.230			-3.176
40805.000			-22.228			-3.175
40904.000			-22.227			-3.175
41004.000			-22.227			-3.175
41105.000			-22.226			-3.175
41203.000			-22.223			-3.175
41304.000			-22.222			-3.175
41405.000			-22.222			-3.175
41504.000			-22.222			-3.175
41604.000			-22.220			-3.174
41704.000			-22.219			-3.174
41804.000			-22.218			-3.174
41904.000			-22.217			-3.174
42005.000			-22.216			-3.174
42104.000			-22.214			-3.173
42204.000			-22.214			-3.173
42305.000			-22.212			-3.173
42403.000			-22.213			-3.173
42504.000			-22.211			-3.173
42605.000			-22.209			-3.173
42704.000			-22.208			-3.173
42805.000			-22.207			-3.172
42903.000			-22.206			-3.172
43004.000			-22.205			-3.172
43105.000			-22.204			-3.172
43204.000			-22.204			-3.172
43304.000			-22.202			-3.172
43405.000			-22.201			-3.172
43504.000			-22.201			-3.172
43603.000			-22.199			-3.171
43705.000			-22.199			-3.171
43804.000			-22.198			-3.171
43904.000			-22.196			-3.171
44005.000			-22.196			-3.171
44104.000			-22.194			-3.171
44204.000			-22.193			-3.170
44304.000			-22.191			-3.170
44404.000			-22.190			-3.170
44504.000			-22.190			-3.170
44605.000			-22.190			-3.170
44704.000			-22.188			-3.170
44804.000			-22.187			-3.170
44905.000			-22.186			-3.169
45003.000			-22.185			-3.169
45104.000			-22.184			-3.169
45205.000			-22.183			-3.169
45304.000			-22.182			-3.169
45404.000			-22.181			-3.169
45504.000			-22.179			-3.168
45604.000			-22.178			-3.168
45704.000			-22.178			-3.168
45804.000			-22.176			-3.168
45904.000			-22.176			-3.168
46005.000			-22.176			-3.168
46104.000			-22.175			-3.168
46203.000			-22.173			-3.168
46305.000			-22.173			-3.168
46404.000			-22.172			-3.167
46504.000			-22.171			-3.167
46605.000			-22.170			-3.167
46704.000			-22.169			-3.167
46804.000			-22.168			-3.167
46904.000			-22.167			-3.167
47004.000			-22.166			-3.167
47104.000			-22.165			-3.166
47205.000			-22.163			-3.166
47304.000			-22.162			-3.166
47404.000			-22.162			-3.166
47505.000			-22.161			-3.166
47603.000			-22.160			-3.166
47704.000			-22.159			-3.166
47805.000			-22.158			-3.165
47904.000			-22.157			-3.165
48004.000			-22.155			-3.165
48105.000			-22.155			-3.165
48204.000			-22.154			-3.165
48303.000			-22.153			-3.165
48405.000			-22.153			-3.165
48504.000			-22.151			-3.164
48604.000			-22.150			-3.164
48705.000			-22.149			-3.164
48803.000			-22.148			-3.164
48904.000			-22.148			-3.164
49005.000			-22.147			-3.164
49104.000			-22.145			-3.164
49205.000			-22.145			-3.164
49304.000			-22.143			-3.163
49404.000			-22.143			-3.163
49504.000			-22.143			-3.163
49604.000			-22.142			-3.163
49704.000			-22.141			-3.163
49805.000			-22.138			-3.163
49904.000			-22.138			-3.163
50004.000			-22.138			-3.163
50105.000			-22.137			-3.162
50203.000			-22.136			-3.162
50304.000			-22.135			-3.162
50405.000			-22.134			-3.162
50504.000			-22.134			-3.162
50604.000			-22.133			-3.162
50705.000			-22.132			-3.162
50804.000			-22.130			-3.161
50903.000			-22.130			-3.161
51005.000			-22.129			-3.161
51104.000			-22.128			-3.161
51204.000			-22.127			-3.161
51305.000			-22.125			-3.161
51403.000			-22.125			-3.161
51504.000			-22.124			-3.161
51605.000			-22.124			-3.161
51704.000			-22.123			-3.160
51804.000			-22.122			-3.160
51905.000			-22.121			-3.160
52004.000			-22.118			-3.160
52103.000			-22.118			-3.160
52205.000			-22.118			-3.160
52304.000			-22.117			-3.160
52405.000			-22.116			-3.159
52504.000			-22.115			-3.159
52604.000			-22.113			-3.159
52705.000			-22.114			-3.159
52803.000			-22.113			-3.159
52904.000			-22.112			-3.159
53005.000			-22.111			-3.159
53104.000			-22.110			-3.159
53204.000			-22.109			-3.158
53304.000			-22.109			-3.158
53404.000			-22.107			-3.158
53504.000			-22.105			-3.158
53605.000			-22.105			-3.158
53704.000			-22.106			-3.158
53804.000			-22.105			-3.158
53905.000			-22.103			-3.158
54003.000			-22.101			-3.157
54104.000			-22.102			-3.157
54205.000			-22.101			-3.157
54304.000			-22.101			-3.157
54404.000			-22.100			-3.157
54504.000			-22.099			-3.157
54604.000			-22.097			-3.157
54704.000			-22.095			-3.156
54805.000			-22.096			-3.157
54904.000			-22.095			-3.156
55004.000			-22.094			-3.156
55105.000			-22.094			-3.156
55203.000			-22.093			-3.156
55304.000			-22.092			-3.156
55405.000			-22.091			-3.156
55504.000			-22.091			-3.156
55605.000			-22.089			-3.156
55704.000			-22.088			-3.155
55804.000			-22.087			-3.155
55904.000			-22.086			-3.155
56004.000			-22.085			-3.155
56104.000			-22.085			-3.155
56205.000			-22.085			-3.155
56304.000			-22.083			-3.155
56404.000			-22.082			-3.155
56505.000			-22.082			-3.155
56603.000			-22.081			-3.154
56704.000			-22.080			-3.154
56805.000			-22.079			-3.154
56904.000			-22.078			-3.154
57004.000			-22.077			-3.154
57105.000			-22.077			-3.154
57204.000			-22.076			-3.154
57303.000			-22.076			-3.154
57405.000			-22.074			-3.153
57504.000			-22.073			-3.153
57604.000			-22.072			-3.153
57705.000			-22.072			-3.153
57804.000			-22.071			-3.153
57904.000			-22.070			-3.153
58004.000			-22.070			-3.153
58104.000			-22.069			-3.153
58204.000			-22.068			-3.153
58305.000			-22.068			-3.153
58404.000			-22.066			-3.152
58504.000			-22.065			-3.152
58605.000			-22.065			-3.152
58703.000			-22.064			-3.152
58805.000			-22.063			-3.152
58904.000			-22.063			-3.152
59004.000			-22.062			-3.152
59105.000			-22.061			-3.152
59204.000			-22.061			-3.152
59304.000			-22.060			-3.151
59404.000			-22.059			-3.151
59504.000			-22.058			-3.151
59604.000			-22.057			-3.151
59705.000			-22.057			-3.151
59804.000			-22.057			-3.151
59904.000			-22.056			-3.151
60005.000			-22.053			-3.150
60103.000			-22.053			-3.150
60204.000			-22.053			-3.150
60305.000			-22.051			-3.150
60404.000			-22.050			-3.150
60504.000			-22.050			-3.150
60604.000			-22.049			-3.150
60704.000			-22.049			-3.150
60804.000			-22.048			-3.150
60905.000			-22.048			-3.150
61004.000			-22.046			-3.149
61104.000			-22.046			-3.149
61205.000			-22.046			-3.149
61303.000			-22.045			-3.149
61404.000			-22.044			-3.149
61505.000			-22.043			-3.149
61604.000			-22.042			-3.149
61704.000			-22.041			-3.149
61803.000			-22.041			-3.149
61904.000			-22.040			-3.149
62005.000			-22.040			-3.149
62104.000			-22.038			-3.148
62204.000			-22.037			-3.148
62305.000			-22.037			-3.148
62404.000			-22.036			-3.148
62503.000			-22.035			-3.148
62605.000			-22.034			-3.148
62704.000			-22.034			-3.148
62804.000			-22.033			-3.148
62905.000			-22.032			-3.147
63004.000			-22.032			-3.147
63104.000			-22.032			-3.147
63204.000			-22.031			-3.147
63304.000			-22.030			-3.147
63404.000			-22.029			-3.147
63505.000			-22.029			-3.147
63604.000			-22.027			-3.147
63703.000			-22.026			-3.147
63805.000			-22.025			-3.146
63904.000			-22.025			-3.146
64004.000			-22.025			-3.146
64105.000			-22.025			-3.146
64204.000			-22.024			-3.146
64304.000			-22.023			-3.146
64404.000			-22.022			-3.146
64504.000			-22.021			-3.146
64604.000			-22.020			-3.146
64705.000			-22.019			-3.146
64804.000			-22.020			-3.146
64904.000			-22.019			-3.146
65005.000			-22.017			-3.145
65103.000			-22.017			-3.145
65205.000			-22.016			-3.145
65304.000			-22.015			-3.145
65404.000			-22.014			-3.145
65505.000			-22.014			-3.145
65604.000			-22.014			-3.145
65704.000			-22.013			-3.145
65804.000			-22.012			-3.145
65904.000			-22.013			-3.145
66004.000			-22.012			-3.145
66105.000			-22.011			-3.144
66204.000			-22.009			-3.144
66303.000			-22.009			-3.144
66405.000			-22.008			-3.144
66504.000			-22.007			-3.144
66604.000			-22.005			-3.144
66705.000			-22.005			-3.144
66804.000			-22.005			-3.144
66904.000			-22.004			-3.143
67004.000			-22.004			-3.143
67104.000			-22.003			-3.143
67204.000			-22.002			-3.143
67305.000			-22.001			-3.143
67404.000			-22.001			-3.143
67504.000			-22.000			-3.143
67605.000			-21.999			-3.143
67703.000			-21.998			-3.143
67804.000			-21.997			-3.142
67905.000			-21.997			-3.142
68004.000			-21.997			-3.142
68104.000			-21.996			-3.142
68204.000			-21.996			-3.142
68304.000			-21.995			-3.142
68404.000			-21.994			-3.142
68504.000			-21.994			-3.142
68604.000			-21.992			-3.142
68705.000			-21.991			-3.142
68804.000			-21.990			-3.141
68904.000			-21.989			-3.141
69005.000			-21.988			-3.141
69104.000			-21.989			-3.141
69204.000			-21.989			-3.141
69304.000			-21.989			-3.141
69404.000			-21.988			-3.141
69504.000			-21.986			-3.141
69605.000			-21.985			-3.141
69704.000			-21.986			-3.141
69804.000			-21.985			-3.141
69905.000			-21.985			-3.141
70003.000			-21.984			-3.141
70104.000			-21.983			-3.140
70205.000			-21.982			-3.140
70304.000			-21.981			-3.140
70404.000			-21.981			-3.140
70505.000			-21.981			-3.140
70604.000			-21.979			-3.140
70703.000			-21.978			-3.140
70805.000			-21.978			-3.140
70904.000			-21.976			-3.139
71004.000			-21.976			-3.139
71105.000			-21.975			-3.139
71204.000			-21.975			-3.139
71304.000			-21.976			-3.139
71403.000			-21.975			-3.139
71504.000			-21.974			-3.139
71605.000			-21.973			-3.139
71704.000			-21.972			-3.139
71804.000			-21.971			-3.139
71905.000			-21.971			-3.139
72004.000			-21.971			-3.139
72103.000			-21.971			-3.139
72205.000			-21.969			-3.138
72304.000			-21.969			-3.138
72404.000			-21.968			-3.138
72505.000			-21.967			-3.138
72604.000			-21.966			-3.138
72704.000			-21.966			-3.138
72804.000			-21.966			-3.138
72904.000			-21.965			-3.138
73004.000			-21.964			-3.138
73105.000			-21.963			-3.138
73204.000			-21.962			-3.137
73304.000			-21.961			-3.137
73405.000			-21.960			-3.137
73503.000			-21.959			-3.137
73604.000			-21.959			-3.137
73705.000			-21.959			-3.137
73804.000			-21.959			-3.137
73904.000			-21.958			-3.137
74005.000			-21.958			-3.137
74104.000			-21.957			-3.137
74203.000			-21.957			-3.137
74305.000			-21.956			-3.137
74404.000			-21.955			-3.136
74504.000			-21.954			-3.136
74605.000			-21.954			-3.136
74704.000			-21.953			-3.136
74805.000			-21.952			-3.136
74903.000			-21.951			-3.136
75004.000			-21.951			-3.136
75105.000			-21.951			-3.136
75204.000			-21.949			-3.136
75304.000			-21.949			-3.136
75405.000			-21.948			-3.135
75504.000			-21.948			-3.135
75603.000			-21.947			-3.135
75705.000			-21.946			-3.135
75804.000			-21.946			-3.135
75904.000			-21.946			-3.135
76005.000			-21.945			-3.135
76104.000			-21.944			-3.135
76204.000			-21.944			-3.135
76304.000			-21.944			-3.135
76404.000			-21.943			-3.135
76503.000			-21.942			-3.135
76605.000			-21.941			-3.134
76704.000			-21.940			-3.134
76804.000			-21.940			-3.134
76905.000			-21.939			-3.134
77004.000			-21.938			-3.134
77104.000			-21.938			-3.134
77204.000			-21.938			-3.134
77304.000			-21.936			-3.134
77404.000			-21.936			-3.134
77505.000			-21.935			-3.134
77604.000			-21.935			-3.134
77704.000			-21.935			-3.134
77805.000			-21.934			-3.133
77903.000			-21.933			-3.133
78005.000			-21.933			-3.133
78104.000			-21.932			-3.133
78204.000			-21.932			-3.133
78305.000			-21.931			-3.133
78404.000			-21.930			-3.133
78504.000			-21.930			-3.133
78604.000			-21.930			-3.133
78704.000			-21.928			-3.133
78804.000			-21.928			-3.133
78905.000			-21.928			-3.133
79004.000			-21.928			-3.133
79104.000			-21.926			-3.132
79205.000			-21.925			-3.132
79303.000			-21.925			-3.132
79404.000			-21.925			-3.132
79505.000			-21.923			-3.132
79604.000			-21.923			-3.132
79704.000			-21.922			-3.132
79805.000			-21.922			-3.132
79904.000			-21.921			-3.132
80003.000			-21.921			-3.132
80105.000			-21.920			-3.131
80204.000			-21.920			-3.131
80304.000			-21.920			-3.131
80405.000			-21.919			-3.131
80504.000			-21.918			-3.131
80604.000			-21.917			-3.131
80704.000			-21.916			-3.131
80804.000			-21.916			-3.131
80904.000			-21.915			-3.131
81004.000			-21.914			-3.131
81104.000			-21.914			-3.131
81205.000			-21.913			-3.130
81304.000			-21.912			-3.130
81403.000			-21.913			-3.130
81505.000			-21.912			-3.130
81604.000			-21.912			-3.130
81704.000			-21.911			-3.130
81805.000			-21.910			-3.130
81904.000			-21.910			-3.130
82004.000			-21.910			-3.130
82104.000			-21.909			-3.130
82204.000			-21.909			-3.130
82304.000			-21.908			-3.130
82405.000			-21.908			-3.130
82504.000			-21.907			-3.130
82604.000			-21.906			-3.129
82705.000			-21.905			-3.129
82803.000			-21.905			-3.129
82904.000			-21.905			-3.129
83005.000			-21.904			-3.129
83104.000			-21.903			-3.129
83204.000			-21.903			-3.129
83304.000			-21.902			-3.129
83404.000			-21.902			-3.129
83503.000			-21.901			-3.129
83605.000			-21.901			-3.129
83704.000			-21.900			-3.129
83804.000			-21.899			-3.128
83905.000			-21.898			-3.128
84003.000			-21.898			-3.128
84104.000			-21.897			-3.128
84205.000			-21.896			-3.128
84304.000			-21.895			-3.128
84405.000			-21.895			-3.128
84504.000			-21.895			-3.128
84604.000			-21.894			-3.128
84704.000			-21.893			-3.128
84804.000			-21.892			-3.127
84903.000			-21.893			-3.128
85005.000			-21.892			-3.127
85104.000			-21.891			-3.127
85204.000			-21.890			-3.127
85305.000			-21.890			-3.127
85404.000			-21.889			-3.127
85504.000			-21.888			-3.127
85604.000			-21.889			-3.127
85704.000			-21.888			-3.127
85804.000			-21.888			-3.127
85905.000			-21.888			-3.127
86004.000			-21.886			-3.127
86104.000			-21.886			-3.127
86205.000			-21.885			-3.126
86303.000			-21.884			-3.126
86404.000			-21.884			-3.126
86505.000			-21.883			-3.126
86604.000			-21.883			-3.126
86704.000			-21.882			-3.126
86805.000			-21.882			-3.126
86904.000			-21.881			-3.126
87003.000			-21.881			-3.126
87105.000			-21.880			-3.126
87204.000			-21.879			-3.126
87304.000			-21.879			-3.126
87405.000			-21.878			-3.125
87504.000			-21.878			-3.125
87605.000			-21.878			-3.125
87704.000			-21.877			-3.125
87804.000			-21.877			-3.125
87904.000			-21.876			-3.125
88004.000			-21.876			-3.125
88104.000			-21.875			-3.125
88205.000			-21.875			-3.125
88304.000			-21.875			-3.125
88404.000			-21.874			-3.125
88505.000			-21.873			-3.125
88603.000			-21.872			-3.125
88704.000			-21.872			-3.125
88805.000			-21.871			-3.124
88904.000			-21.870			-3.124
89004.000			-21.869			-3.124
89105.000			-21.869			-3.124
89204.000			-21.869			-3.124
89303.000			-21.869			-3.124
89405.000			-21.869			-3.124
89504.000			-21.867			-3.124
89604.000			-21.866			-3.124
89705.000			-21.865			-3.124
89804.000			-21.866			-3.124
89904.000			-21.865			-3.124
90005.000			-21.865			-3.124
90104.000			-21.864			-3.123
90203.000			-21.863			-3.123
90305.000			-21.863			-3.123
90404.000			-21.862			-3.123
90504.000			-21.862			-3.123
90605.000			-21.863			-3.123
90704.000			-21.862			-3.123
90805.000			-21.861			-3.123
90903.000			-21.861			-3.123
91004.000			-21.858			-3.123
91105.000			-21.858			-3.123
91204.000			-21.858			-3.123
91304.000			-21.858			-3.123
91405.000			-21.858			-3.123
91504.000			-21.858			-3.123
91603.000			-21.857			-3.122
91705.000			-21.856			-3.122
91804.000			-21.856			-3.122
91904.000			-21.854			-3.122
92005.000			-21.854			-3.122
92104.000			-21.855			-3.122
92204.000			-21.854			-3.122
92304.000			-21.853			-3.122
92404.000			-21.853			-3.122
92504.000			-21.852			-3.122
92605.000			-21.850			-3.121
92704.000			-21.850			-3.121
92804.000			-21.850			-3.121
92905.000			-21.850			-3.121
93003.000			-21.850			-3.121
93104.000			-21.850			-3.121
93205.000			-21.848			-3.121
93304.000			-21.848			-3.121
93404.000			-21.847			-3.121
93505.000			-21.847			-3.121
93604.000			-21.846			-3.121
93703.000			-21.845			-3.121
93805.000			-21.845			-3.121
93904.000			-21.846			-3.121
94005.000			-21.846			-3.121
94104.000			-21.844			-3.121
94204.000			-21.843			-3.120
94305.000			-21.843			-3.120
94403.000			-21.843			-3.120
94504.000			-21.843			-3.120
94605.000			-21.841			-3.120
94704.000			-21.841			-3.120
94804.000			-21.840			-3.120
94905.000			-21.839			-3.120
95004.000			-21.839			-3.120
95103.000			-21.839			-3.120
95205.000			-21.838			-3.120
95304.000			-21.838			-3.120
95404.000			-21.838			-3.120
95505.000			-21.838			-3.120
95604.000			-21.836			-3.119
95704.000			-21.836			-3.119
95804.000			-21.836			-3.119
95904.000			-21.835			-3.119
96004.000			-21.834			-3.119
96105.000			-21.834			-3.119
96204.000			-21.832			-3.119
96304.000			-21.832			-3.119
96405.000			-21.833			-3.119
96503.000			-21.833			-3.119
96604.000			-21.832			-3.119
96705.000			-21.830			-3.119
96804.000			-21.831			-3.119
96904.000			-21.831			-3.119
97004.000			-21.830			-3.119
97104.000			-21.829			-3.118
97204.000			-21.829			-3.118
97304.000			-21.828			-3.118
97404.000			-21.828			-3.118
97505.000			-21.826			-3.118
97604.000			-21.827			-3.118
97704.000			-21.826			-3.118
97805.000			-21.826			-3.118
97903.000			-21.826			-3.118
98004.000			-21.825			-3.118
98105.000			-21.825			-3.118
98204.000			-21.824			-3.118
98304.000			-21.823			-3.118
98405.000			-21.822			-3.117
98504.000			-21.822			-3.117
98603.000			-21.822			-3.117
98705.000			-21.822			-3.117
98804.000			-21.821			-3.117
98904.000			-21.821			-3.117
99005.000			-21.820			-3.117
99104.000			-21.819			-3.117
99204.000			-21.818			-3.117
99304.000			-21.819			-3.117
99404.000			-21.818			-3.117
99504.000			-21.818			-3.117
99605.000			-21.817			-3.117
99704.000			-21.816			-3.117
99804.000			-21.816			-3.117
99905.000			-21.816			-3.117
100003.000			-21.816			-3.117
100104.000			-21.815			-3.116
100205.000			-21.815			-3.116
100304.000			-21.814			-3.116
100405.000			-21.814			-3.116
100504.000			-21.813			-3.116
100604.000			-21.812			-3.116
100704.000			-21.813			-3.116
100804.000			-21.811			-3.116
100904.000			-21.811			-3.116
101005.000			-21.810			-3.116
101104.000			-21.810			-3.116
101204.000			-21.810			-3.116
101305.000			-21.810			-3.116
101403.000			-21.808			-3.115
101504.000			-21.809			-3.116
101605.000			-21.807			-3.115
101704.000			-21.806			-3.115
101804.000			-21.806			-3.115
101905.000			-21.806			-3.115
102004.000			-21.806			-3.115
102103.000			-21.806			-3.115
102205.000			-21.804			-3.115
102304.000			-21.804			-3.115
102404.000			-21.804			-3.115
102505.000			-21.804			-3.115
102604.000			-21.802			-3.115
102704.000			-21.801			-3.114
102804.000			-21.802			-3.115
102904.000			-21.801			-3.114
103004.000			-21.801			-3.114
103105.000			-21.801			-3.114
103204.000			-21.801			-3.114
103304.000			-21.799			-3.114
103405.000			-21.800			-3.114
103503.000			-21.800			-3.114
103605.000			-21.797			-3.114
103704.000			-21.797			-3.114
103804.000			-21.797			-3.114
103905.000			-21.797			-3.114
104004.000			-21.795			-3.114
104104.000			-21.795			-3.114
104204.000			-21.795			-3.114
104304.000			-21.794			-3.113
104404.000			-21.795			-3.114
104505.000			-21.794			-3.113
104604.000			-21.794			-3.113
104704.000			-21.794			-3.113
104805.000			-21.792			-3.113
104903.000			-21.792			-3.113
105004.000			-21.791			-3.113
105105.000			-21.792			-3.113
105204.000			-21.790			-3.113
105304.000			-21.789			-3.113
105405.000			-21.788			-3.113
105504.000			-21.789			-3.113
105604.000			-21.788			-3.113
105705.000			-21.787			-3.112
105803.000			-21.787			-3.112
105904.000			-21.789			-3.113
106005.000			-21.788			-3.113
106104.000			-21.786			-3.112
106204.000			-21.786			-3.112
106305.000			-21.786			-3.112
106404.000			-21.786			-3.112
106503.000			-21.784			-3.112
106605.000			-21.784			-3.112
106704.000			-21.783			-3.112
106805.000			-21.782			-3.112
106904.000			-21.783			-3.112
107004.000			-21.782			-3.112
107105.000			-21.782			-3.112
107203.000			-21.781			-3.112
107304.000			-21.781			-3.112
107405.000			-21.781			-3.112
107504.000			-21.781			-3.112
107604.000			-21.780			-3.111
107705.000			-21.778			-3.111
107804.000			-21.778			-3.111
107904.000			-21.779			-3.111
108005.000			-21.779			-3.111
108103.000			-21.777			-3.111
108204.000			-21.776			-3.111
108305.000			-21.776			-3.111
108404.000			-21.776			-3.111
108504.000			-21.776			-3.111
108605.000			-21.775			-3.111
108704.000			-21.774			-3.111
108803.000			-21.774			-3.111
108905.000			-21.773			-3.110
109004.000			-21.773			-3.110
109104.000			-21.772			-3.110
109205.000			-21.772			-3.110
109304.000			-21.772			-3.110
109404.000			-21.772			-3.110
109504.000			-21.771			-3.110
109604.000			-21.770			-3.110
109704.000			-21.770			-3.110
109804.000			-21.770			-3.110
109904.000			-21.769			-3.110
110005.000			-21.769			-3.110
110104.000			-21.769			-3.110
110203.000			-21.768			-3.110
110305.000			-21.767			-3.110
110404.000			-21.768			-3.110
110504.000			-21.767			-3.110
110605.000			-21.767			-3.110
110704.000			-21.765			-3.109
110804.000			-21.765			-3.109
110905.000			-21.765			-3.109
111004.000			-21.765			-3.109
111103.000			-21.764			-3.109
111205.000			-21.764			-3.109
111304.000			-21.763			-3.109
111404.000			-21.763			-3.109
111505.000			-21.762			-3.109
111604.000			-21.763			-3.109
111704.000			-21.762			-3.109
111804.000			-21.762			-3.109
111904.000			-21.761			-3.109
112004.000			-21.760			-3.109
112105.000			-21.761			-3.109
112204.000			-21.760			-3.109
112304.000			-21.759			-3.108
112405.000			-21.759			-3.108
112503.000			-21.758			-3.108
112604.000			-21.758			-3.108
112705.000			-21.757			-3.108
112804.000			-21.758			-3.108
112904.000			-21.757			-3.108
113004.000			-21.757			-3.108
113104.000			-21.756			-3.108
113204.000			-21.755			-3.108
113304.000			-21.754			-3.108
113404.000			-21.753			-3.108
113505.000			-21.753			-3.108
113604.000			-21.753			-3.108
113704.000			-21.753			-3.108
113805.000			-21.752			-3.107
113903.000			-21.751			-3.107
114004.000			-21.751			-3.107
114105.000			-21.750			-3.107
114204.000			-21.751			-3.107
114304.000			-21.750			-3.107
114405.000			-21.750			-3.107
114504.000			-21.749			-3.107
114603.000			-21.750			-3.107
114705.000			-21.748			-3.107
114804.000			-21.748			-3.107
114904.000			-21.749			-3.107
115005.000			-21.748			-3.107
115104.000			-21.748			-3.107
115204.000			-21.747			-3.107
115305.000			-21.747			-3.107
115404.000			-21.747			-3.107
115503.000			-21.746			-3.107
115605.000			-21.746			-3.107
115704.000			-21.746			-3.107
115804.000			-21.745			-3.106
115905.000			-21.745			-3.106
116004.000			-21.744			-3.106
116104.000			-21.743			-3.106
116203.000			-21.743			-3.106
116304.000			-21.742			-3.106
116405.000			-21.741			-3.106
116504.000			-21.741			-3.106
116604.000			-21.740			-3.106
116705.000			-21.741			-3.106
116804.000			-21.740			-3.106
116903.000			-21.740			-3.106
117005.000			-21.739			-3.106
117104.000			-21.739			-3.106
117204.000			-21.738			-3.105
117305.000			-21.738			-3.105
117404.000			-21.737			-3.105
117504.000			-21.738			-3.105
117604.000			-21.738			-3.105
117704.000			-21.737			-3.105
117803.000			-21.736			-3.105
117905.000			-21.735			-3.105
118004.000			-21.735			-3.105
118104.000			-21.736			-3.105
118205.000			-21.735			-3.105
118304.000			-21.734			-3.105
118404.000			-21.734			-3.105
118504.000			-21.734			-3.105
118604.000			-21.734			-3.105
118704.000			-21.733			-3.105
118805.000			-21.731			-3.104
118904.000			-21.731			-3.104
119004.000			-21.732			-3.105
119105.000			-21.731			-3.104
119203.000			-21.730			-3.104
119304.000			-21.730			-3.104
119405.000			-21.729			-3.104
119504.000			-21.728			-3.104
119605.000			-21.727			-3.104
119704.000			-21.727			-3.104
119804.000			-21.728			-3.104
119904.000			-21.727			-3.104
120004.000			-21.727			-3.104
120104.000			-21.726			-3.104
120205.000			-21.726			-3.104
120304.000			-21.726			-3.104
120404.000			-21.725			-3.104
120505.000			-21.725			-3.104
120603.000			-21.725			-3.104
120704.000			-21.724			-3.103
120805.000			-21.723			-3.103
120904.000			-21.723			-3.103
121004.000			-21.724			-3.103
121105.000			-21.723			-3.103
121204.000			-21.722			-3.103
121303.000			-21.722			-3.103
121405.000			-21.722			-3.103
121504.000			-21.721			-3.103
121604.000			-21.720			-3.103
121705.000			-21.721			-3.103
121804.000			-21.720			-3.103
121904.000			-21.719			-3.103
122004.000			-21.718			-3.103
122104.000			-21.718			-3.103
122204.000			-21.718			-3.103
122305.000			-21.717			-3.102
122404.000			-21.718			-3.103
122504.000			-21.717			-3.102
122605.000			-21.717			-3.102
122703.000			-21.716			-3.102
122805.000			-21.716			-3.102
122904.000			-21.716			-3.102
123004.000			-21.716			-3.102
123105.000			-21.715			-3.102
123204.000			-21.715			-3.102
123304.000			-21.714			-3.102
123405.000			-21.714			-3.102
123504.000			-21.713			-3.102
123603.000			-21.713			-3.102
123705.000			-21.712			-3.102
123804.000			-21.713			-3.102
123904.000			-21.712			-3.102
124005.000			-21.711			-3.102
124104.000			-21.710			-3.101
124204.000			-21.710			-3.101
124304.000			-21.709			-3.101
124404.000			-21.710			-3.101
124504.000			-21.710			-3.101
124605.000			-21.709			-3.101
124704.000			-21.708			-3.101
124804.000			-21.709			-3.101
124905.000			-21.708			-3.101
125003.000			-21.708			-3.101
125104.000			-21.708			-3.101
125205.000			-21.707			-3.101
125304.000			-21.707			-3.101
125404.000			-21.706			-3.101
125505.000			-21.705			-3.101
125604.000			-21.705			-3.101
125703.000			-21.705			-3.101
125805.000			-21.704			-3.101
125904.000			-21.703			-3.100
126005.000			-21.704			-3.101
126104.000			-21.704			-3.101
126204.000			-21.704			-3.101
126305.000			-21.702			-3.100
126403.000			-21.702			-3.100
126504.000			-21.701			-3.100
126605.000			-21.702			-3.100
126704.000			-21.702			-3.100
126804.000			-21.700			-3.100
126905.000			-21.700			-3.100
127004.000			-21.700			-3.100
127103.000			-21.700			-3.100
127205.000			-21.698			-3.100
127304.000			-21.697			-3.100
127404.000			-21.698			-3.100
127505.000			-21.698			-3.100
127604.000			-21.698			-3.100
127704.000			-21.698			-3.100
127804.000			-21.697			-3.100
127904.000			-21.696			-3.099
128004.000			-21.696			-3.099
128105.000			-21.697			-3.100
128204.000			-21.696			-3.099
128304.000			-21.695			-3.099
128405.000			-21.695			-3.099
128504.000			-21.693			-3.099
128604.000			-21.693			-3.099
128704.000			-21.693			-3.099
128804.000			-21.692			-3.099
128904.000			-21.692			-3.099
129004.000			-21.692			-3.099
129104.000			-21.691			-3.099
129205.000			-21.691			-3.099
129304.000			-21.691			-3.099
129403.000			-21.691			-3.099
129505.000			-21.690			-3.099
129604.000			-21.689			-3.098
129704.000			-21.688			-3.098
129805.000			-21.689			-3.098
129904.000			-21.689			-3.098
130004.000			-21.689			-3.098
130104.000			-21.688			-3.098
130204.000			-21.688			-3.098
130303.000			-21.688			-3.098
130405.000			-21.686			-3.098
130504.000			-21.686			-3.098
130604.000			-21.687			-3.098
130705.000			-21.687			-3.098
130804.000			-21.684			-3.098
130904.000			-21.684			-3.098
131004.000			-21.684			-3.098
131104.000			-21.684			-3.098
131204.000			-21.684			-3.098
131305.000			-21.683			-3.098
131404.000			-21.683			-3.098
131504.000			-21.682			-3.097
131605.000			-21.682			-3.097
131703.000			-21.682			-3.097
131804.000			-21.682			-3.097
131904.000			-21.681			-3.097
132004.000			-21.680			-3.097
132104.000			-21.680			-3.097
132204.000			-21.680			-3.097
132304.000			-21.679			-3.097
132405.000			-21.678			-3.097
132504.000			-21.678			-3.097
132603.000			-21.678			-3.097
132705.000			-21.678			-3.097
132804.000			-21.678			-3.097
132904.000			-21.677			-3.097
133005.000			-21.677			-3.097
133104.000			-21.677			-3.097
133204.000			-21.676			-3.097
133305.000			-21.675			-3.096
133404.000			-21.675			-3.096
133503.000			-21.675			-3.096
133605.000			-21.675			-3.096
133704.000			-21.674			-3.096
133804.000			-21.673			-3.096
133905.000			-21.674			-3.096
134004.000			-21.673			-3.096
134104.000			-21.673			-3.096
134205.000			-21.672			-3.096
134304.000			-21.672			-3.096
134403.000			-21.672			-3.096
134505.000			-21.672			-3.096
134604.000			-21.672			-3.096
134704.000			-21.672			-3.096
134805.000			-21.670			-3.096
134904.000			-21.669			-3.096
135004.000			-21.670			-3.096
135105.000			-21.670			-3.096
135204.000			-21.669			-3.096
135303.000			-21.668			-3.095
135405.000			-21.667			-3.095
135504.000			-21.666			-3.095
135605.000			-21.667			-3.095
135704.000			-21.667			-3.095
135804.000			-21.667			-3.095
135905.000			-21.666			-3.095
136004.000			-21.666			-3.095
136104.000			-21.666			-3.095
136204.000			-21.665			-3.095
136304.000			-21.665			-3.095
136404.000			-21.666			-3.095
136505.000			-21.664			-3.095
136604.000			-21.663			-3.095
136704.000			-21.663			-3.095
136805.000			-21.662			-3.095
136904.000			-21.663			-3.095
137004.000			-21.662			-3.095
137104.000			-21.662			-3.095
137204.000			-21.661			-3.094
137304.000			-21.661			-3.094
137405.000			-21.661			-3.094
137504.000			-21.660			-3.094
137604.000			-21.661			-3.094
137705.000			-21.661			-3.094
137804.000			-21.660			-3.094
137904.000			-21.660			-3.094
138004.000			-21.658			-3.094
138104.000			-21.659			-3.094
138204.000			-21.658			-3.094
138305.000			-21.657			-3.094
138404.000			-21.658			-3.094
138504.000			-21.657			-3.094
138605.000			-21.658			-3.094
138704.000			-21.656			-3.094
138805.000			-21.655			-3.094
138903.000			-21.656			-3.094
139004.000			-21.655			-3.094
139105.000			-21.655			-3.094
139204.000			-21.654			-3.093
139304.000			-21.655			-3.094
139405.000			-21.654			-3.093
139504.000			-21.653			-3.093
139604.000			-21.653			-3.093
139705.000			-21.653			-3.093
139803.000			-21.652			-3.093
139904.000			-21.652			-3.093
140005.000			-21.653			-3.093
140104.000			-21.652			-3.093
140204.000			-21.651			-3.093
140305.000			-21.650			-3.093
140404.000			-21.650			-3.093
140503.000			-21.649			-3.093
140605.000			-21.649			-3.093
140703.000			-21.650			-3.093
140804.000			-21.650			-3.093
140905.000			-21.648			-3.093
141004.000			-21.647			-3.092
141104.000			-21.648			-3.093
141205.000			-21.648			-3.093
141304.000			-21.647			-3.092
141403.000			-21.646			-3.092
141505.000			-21.647			-3.092
141603.000			-21.646			-3.092
141704.000			-21.646			-3.092
141805.000			-21.645			-3.092
141904.000			-21.645			-3.092
142005.000			-21.645			-3.092
142104.000			-21.645			-3.092
142204.000			-21.645			-3.092
142304.000			-21.644			-3.092
142404.000			-21.643			-3.092
142504.000			-21.643			-3.092
142605.000			-21.643			-3.092
142704.000			-21.643			-3.092
142804.000			-21.642			-3.092
142905.000			-21.642			-3.092
143004.000			-21.641			-3.092
143104.000			-21.642			-3.092
143204.000			-21.640			-3.091
143304.000			-21.639			-3.091
143404.000			-21.639			-3.091
143505.000			-21.639			-3.091
143604.000			-21.639			-3.091
143704.000			-21.638			-3.091
143805.000			-21.638			-3.091
143904.000			-21.638			-3.091
144004.000			-21.638			-3.091
144104.000			-21.638			-3.091
144204.000			-21.637			-3.091
144304.000			-21.638			-3.091
144405.000			-21.638			-3.091
144504.000			-21.637			-3.091
144604.000			-21.636			-3.091
144705.000			-21.635			-3.091
144803.000			-21.636			-3.091
144904.000			-21.635			-3.091
145003.000			-21.635			-3.091
145104.000			-21.633			-3.090
145205.000			-21.634			-3.091
145304.000			-21.634			-3.091
145404.000			-21.633			-3.090
145505.000			-21.633			-3.090
145604.000			-21.633			-3.090
145703.000			-21.633			-3.090
145805.000			-21.632			-3.090
145904.000			-21.631			-3.090
146004.000			-21.630			-3.090
146105.000			-21.630			-3.090
146204.000			-21.631			-3.090
146304.000			-21.631			-3.090
146405.000			-21.630			-3.090
146504.000			-21.630			-3.090
146603.000			-21.630			-3.090
146705.000			-21.628			-3.090
146804.000			-21.628			-3.090
146904.000			-21.629			-3.090
147005.000			-21.628			-3.090
147104.000			-21.629			-3.090
147204.000			-21.628			-3.090
147305.000			-21.627			-3.090
147404.000			-21.626			-3.089
147503.000			-21.626			-3.089
147605.000			-21.626			-3.089
147704.000			-21.626			-3.089
147804.000			-21.625			-3.089
147905.000			-21.625			-3.089
148004.000			-21.624			-3.089
148104.000			-21.624			-3.089
148204.000			-21.624			-3.089
148304.000			-21.624			-3.089
148404.000			-21.624			-3.089
148504.000			-21.623			-3.089
148604.000			-21.623			-3.089
148705.000			-21.623			-3.089
148804.000			-21.622			-3.089
148904.000			-21.622			-3.089
149005.000			-21.621			-3.089
149104.000			-21.621			-3.089
149204.000			-21.621			-3.089
149304.000			-21.620			-3.089
149404.000			-21.620			-3.089
149504.000			-21.619			-3.088
149605.000			-21.620			-3.089
149704.000			-21.620			-3.089
149804.000			-21.618			-3.088
149905.000			-21.618			-3.088
150004.000			-21.617			-3.088
150104.000			-21.618			-3.088
150204.000			-21.616			-3.088
150304.000			-21.617			-3.088
150404.000			-21.618			-3.088
150505.000			-21.617			-3.088
150604.000			-21.616			-3.088
150704.000			-21.615			-3.088
150805.000			-21.615			-3.088
150903.000			-21.616			-3.088
151004.000			-21.616			-3.088
151104.000			-21.615			-3.088
151204.000			-21.615			-3.088
151304.000			-21.615			-3.088
151404.000			-21.615			-3.088
151504.000			-21.613			-3.088
151605.000			-21.613			-3.088
151704.000			-21.613			-3.088
151803.000			-21.612			-3.087
151905.000			-21.612			-3.087
152004.000			-21.612			-3.087
152104.000			-21.611			-3.087
152205.000			-21.610			-3.087
152304.000			-21.610			-3.087
152404.000			-21.609			-3.087
152504.000			-21.610			-3.087
152604.000			-21.610			-3.087
152703.000			-21.609			-3.087
152805.000			-21.609			-3.087
152904.000			-21.610			-3.087
153004.000			-21.609			-3.087
153105.000			-21.609			-3.087
153204.000			-21.610			-3.087
153304.000			-21.609			-3.087
153404.000			-21.608			-3.087
153504.000			-21.608			-3.087
153603.000			-21.607			-3.087
153705.000			-21.607			-3.087
153804.000			-21.606			-3.087
153904.000			-21.606			-3.087
154005.000			-21.606			-3.087
154104.000			-21.606			-3.087
154204.000			-21.605			-3.086
154304.000			-21.606			-3.087
154404.000			-21.606			-3.087
154504.000			-21.605			-3.086
154604.000			-21.604			-3.086
154704.000			-21.603			-3.086
154805.000			-21.602			-3.086
154904.000			-21.602			-3.086
155004.000			-21.602			-3.086
155105.000			-21.601			-3.086
155203.000			-21.601			-3.086
155304.000			-21.602			-3.086
155405.000			-21.602			-3.086
155504.000			-21.600			-3.086
155604.000			-21.600			-3.086
155705.000			-21.600			-3.086
155804.000			-21.599			-3.086
155903.000			-21.599			-3.086
156005.000			-21.599			-3.086
156104.000			-21.598			-3.085
156204.000			-21.598			-3.085
156305.000			-21.597			-3.085
156404.000			-21.597			-3.085
156504.000			-21.597			-3.085
156605.000			-21.596			-3.085
156704.000			-21.597			-3.085
156803.000			-21.595			-3.085
156905.000			-21.596			-3.085
157004.000			-21.597			-3.085
157104.000			-21.596			-3.085
157205.000			-21.596			-3.085
157304.000			-21.597			-3.085
157404.000			-21.596			-3.085
157505.000			-21.594			-3.085
157604.000			-21.593			-3.085
157703.000			-21.593			-3.085
157805.000			-21.593			-3.085
157903.000			-21.592			-3.085
158005.000			-21.592			-3.085
158104.000			-21.592			-3.085
158204.000			-21.592			-3.085
158305.000			-21.593			-3.085
158404.000			-21.592			-3.085
158504.000			-21.592			-3.085
158604.000			-21.591			-3.084
158704.000			-21.591			-3.084
158803.000			-21.590			-3.084
158905.000			-21.590			-3.084
159004.000			-21.590			-3.084
159104.000			-21.589			-3.084
159205.000			-21.589			-3.084
159304.000			-21.587			-3.084
159404.000			-21.587			-3.084
159505.000			-21.587			-3.084
159604.000			-21.588			-3.084
159703.000			-21.588			-3.084
159805.000			-21.587			-3.084
159904.000			-21.587			-3.084
160004.000			-21.587			-3.084
160105.000			-21.586			-3.084
160204.000			-21.586			-3.084
160304.000			-21.586			-3.084
160405.000			-21.585			-3.084
160504.000			-21.585			-3.084
160603.000			-21.584			-3.083
160705.000			-21.584			-3.083
160804.000			-21.584			-3.083
160904.000			-21.584			-3.083
161005.000			-21.585			-3.084
161104.000			-21.584			-3.083
161205.000			-21.584			-3.083
161304.000			-21.583			-3.083
161404.000			-21.582			-3.083
161504.000			-21.581			-3.083
161604.000			-21.581			-3.083
161704.000			-21.581			-3.083
161805.000			-21.580			-3.083
161904.000			-21.580			-3.083
162004.000			-21.581			-3.083
162105.000			-21.580			-3.083
162204.000			-21.579			-3.083
162304.000			-21.579			-3.083
162404.000			-21.579			-3.083
162504.000			-21.579			-3.083
162604.000			-21.578			-3.083
162705.000			-21.577			-3.082
162804.000			-21.578			-3.083
162904.000			-21.578			-3.083
163005.000			-21.577			-3.082
163104.000			-21.577			-3.082
163204.000			-21.576			-3.082
163304.000			-21.576			-3.082
163404.000			-21.576			-3.082
163504.000			-21.576			-3.082
163605.000			-21.576			-3.082
163704.000			-21.575			-3.082
163804.000			-21.574			-3.082
163905.000			-21.574			-3.082
164003.000			-21.574			-3.082
164104.000			-21.573			-3.082
164203.000			-21.574			-3.082
164304.000			-21.573			-3.082
164405.000			-21.572			-3.082
164504.000			-21.572			-3.082
164604.000			-21.572			-3.082
164705.000			-21.571			-3.082
164804.000			-21.571			-3.082
164903.000			-21.572			-3.082
165005.000			-21.571			-3.082
165104.000			-21.570			-3.081
165204.000			-21.570			-3.081
165305.000			-21.571			-3.082
165404.000			-21.570			-3.081
165504.000			-21.570			-3.081
165605.000			-21.570			-3.081
165704.000			-21.569			-3.081
165803.000			-21.567			-3.081
165905.000			-21.567			-3.081
166003.000			-21.568			-3.081
166104.000			-21.568			-3.081
166205.000			-21.567			-3.081
166304.000			-21.568			-3.081
166404.000			-21.567			-3.081
166505.000			-21.566			-3.081
166604.000			-21.567			-3.081
166703.000			-21.566			-3.081
166805.000			-21.565			-3.081
166903.000			-21.566			-3.081
167004.000			-21.565			-3.081
167105.000			-21.564			-3.081
167204.000			-21.564			-3.081
167304.000			-21.565			-3.081
167404.000			-21.564			-3.081
167504.000			-21.564			-3.081
167604.000			-21.563			-3.080
167704.000			-21.563			-3.080
167803.000			-21.562			-3.080
167905.000			-21.563			-3.080
168004.000			-21.563			-3.080
168104.000			-21.562			-3.080
168205.000			-21.562			-3.080
168304.000			-21.562			-3.080
168404.000			-21.562			-3.080
168504.000			-21.562			-3.080
168604.000			-21.561			-3.080
168703.000			-21.560			-3.080
168805.000			-21.560			-3.080
168904.000			-21.560			-3.080
169004.000			-21.559			-3.080
169105.000			-21.559			-3.080
169204.000			-21.559			-3.080
169304.000			-21.558			-3.080
169404.000			-21.558			-3.080
169504.000			-21.558			-3.080
169603.000			-21.557			-3.080
169705.000			-21.558			-3.080
169804.000			-21.557			-3.080
169904.000			-21.557			-3.080
170005.000			-21.556			-3.079
170104.000			-21.556			-3.079
170204.000			-21.556			-3.079
170304.000			-21.555			-3.079
170404.000			-21.554			-3.079
170503.000			-21.554			-3.079
170605.000			-21.554			-3.079
170704.000			-21.555			-3.079
170805.000			-21.554			-3.079
170904.000			-21.553			-3.079
171004.000			-21.553			-3.079
171105.000			-21.553			-3.079
171203.000			-21.553			-3.079
171304.000			-21.553			-3.079
171404.000			-21.552			-3.079
171504.000			-21.551			-3.079
171604.000			-21.551			-3.079
171705.000			-21.551			-3.079
171804.000			-21.551			-3.079
171904.000			-21.551			-3.079
172005.000			-21.550			-3.079
172103.000			-21.550			-3.079
172204.000			-21.550			-3.079
172305.000			-21.549			-3.078
172404.000			-21.549			-3.078
172504.000			-21.550			-3.079
172605.000			-21.548			-3.078
172704.000			-21.548			-3.078
172804.000			-21.547			-3.078
172905.000			-21.547			-3.078
173003.000			-21.548			-3.078
173104.000			-21.547			-3.078
173205.000			-21.547			-3.078
173304.000			-21.547			-3.078
173404.000			-21.545			-3.078
173505.000			-21.545			-3.078
173604.000			-21.546			-3.078
173704.000			-21.545			-3.078
173805.000			-21.545			-3.078
173903.000			-21.545			-3.078
174005.000			-21.544			-3.078
174104.000			-21.544			-3.078
174204.000			-21.545			-3.078
174305.000			-21.544			-3.078
174404.000			-21.544			-3.078
174504.000			-21.543			-3.078
174605.000			-21.543			-3.078
174704.000			-21.543			-3.078
174803.000			-21.542			-3.077
174905.000			-21.542			-3.077
175004.000			-21.543			-3.078
175104.000			-21.542			-3.077
175205.000			-21.542			-3.077
175304.000			-21.541			-3.077
175404.000			-21.541			-3.077
175504.000			-21.541			-3.077
175604.000			-21.540			-3.077
175703.000			-21.540			-3.077
175805.000			-21.540			-3.077
175904.000			-21.540			-3.077
176004.000			-21.539			-3.077
176105.000			-21.539			-3.077
176204.000			-21.538			-3.077
176304.000			-21.538			-3.077
176404.000			-21.537			-3.077
176504.000			-21.538			-3.077
176603.000			-21.537			-3.077
176705.000			-21.536			-3.077
176804.000			-21.535			-3.076
176904.000			-21.536			-3.077
177005.000			-21.535			-3.076
177104.000			-21.535			-3.076
177205.000			-21.535			-3.076
177303.000			-21.535			-3.076
177404.000			-21.535			-3.076
177504.000			-21.535			-3.076
177604.000			-21.534			-3.076
177704.000			-21.534			-3.076
177805.000			-21.534			-3.076
177904.000			-21.533			-3.076
178004.000			-21.533			-3.076
178105.000			-21.534			-3.076
178203.000			-21.533			-3.076
178304.000			-21.532			-3.076
178404.000			-21.532			-3.076
178504.000			-21.532			-3.076
178604.000			-21.531			-3.076
178705.000			-21.530			-3.076
178804.000			-21.529			-3.076
178904.000			-21.530			-3.076
179005.000			-21.530			-3.076
179103.000			-21.530			-3.076
179204.000			-21.530			-3.076
179305.000			-21.530			-3.076
179404.000			-21.530			-3.076
179504.000			-21.530			-3.076
179605.000			-21.529			-3.076
179704.000			-21.527			-3.075
179804.000			-21.528			-3.075
179905.000			-21.529			-3.076
180003.000			-21.527			-3.075
180104.000			-21.526			-3.075
180203.000			-21.527			-3.075
180304.000			-21.527			-3.075
180405.000			-21.527			-3.075
180504.000			-21.527			-3.075
180604.000			-21.526			-3.075
180705.000			-21.525			-3.075
180804.000			-21.525			-3.075
180903.000			-21.524			-3.075
181005.000			-21.524			-3.075
181104.000			-21.525			-3.075
181204.000			-21.526			-3.075
181305.000			-21.524			-3.075
181404.000			-21.523			-3.075
181504.000			-21.522			-3.075
181605.000			-21.523			-3.075
181704.000			-21.523			-3.075
181803.000			-21.523			-3.075
181905.000			-21.523			-3.075
182004.000			-21.521			-3.074
182104.000			-21.521			-3.074
182205.000			-21.521			-3.074
182304.000			-21.522			-3.075
182404.000			-21.521			-3.074
182504.000			-21.521			-3.074
182604.000			-21.521			-3.074
182703.000			-21.521			-3.074
182805.000			-21.520			-3.074
182904.000			-21.520			-3.074
183004.000			-21.519			-3.074
183105.000			-21.519			-3.074
183204.000			-21.519			-3.074
183304.000			-21.519			-3.074
183403.000			-21.518			-3.074
183504.000			-21.518			-3.074
183605.000			-21.518			-3.074
183704.000			-21.518			-3.074
183804.000			-21.517			-3.074
183905.000			-21.517			-3.074
184004.000			-21.517			-3.074
184104.000			-21.516			-3.074
184205.000			-21.517			-3.074
184303.000			-21.517			-3.074
184404.000			-21.515			-3.074
184505.000			-21.515			-3.074
184604.000			-21.515			-3.074
184704.000			-21.515			-3.074
184805.000			-21.515			-3.074
184904.000			-21.514			-3.073
185004.000			-21.514			-3.073
185105.000			-21.515			-3.074
185203.000			-21.514			-3.073
185304.000			-21.514			-3.073
185405.000			-21.513			-3.073
185504.000			-21.513			-3.073
185604.000			-21.513			-3.073
185705.000			-21.512			-3.073
185804.000			-21.512			-3.073
185904.000			-21.512			-3.073
186005.000			-21.511			-3.073
186103.000			-21.511			-3.073
186204.000			-21.511			-3.073
186305.000			-21.511			-3.073
186404.000			-21.510			-3.073
186504.000			-21.509			-3.073
186604.000			-21.510			-3.073
186704.000			-21.509			-3.073
186805.000			-21.508			-3.073
186904.000			-21.508			-3.073
187003.000			-21.508			-3.073
187105.000			-21.508			-3.073
187204.000			-21.508			-3.073
187304.000			-21.508			-3.073
187405.000			-21.508			-3.073
187504.000			-21.507			-3.072
187604.000			-21.507			-3.072
187705.000			-21.507			-3.072
187804.000			-21.507			-3.072
187903.000			-21.506			-3.072
188005.000			-21.506			-3.072
188104.000			-21.506			-3.072
188204.000			-21.505			-3.072
188305.000			-21.506			-3.072
188404.000			-21.505			-3.072
188504.000			-21.504			-3.072
188605.000			-21.503			-3.072
188704.000			-21.503			-3.072
188803.000			-21.504			-3.072
188905.000			-21.504			-3.072
189004.000			-21.504			-3.072
189104.000			-21.503			-3.072
189205.000			-21.504			-3.072
189304.000			-21.503			-3.072
189404.000			-21.503			-3.072
189505.000			-21.502			-3.072
189604.000			-21.502			-3.072
189703.000			-21.501			-3.072
189805.000			-21.501			-3.072
189904.000			-21.500			-3.071
190005.000			-21.500			-3.071
190104.000			-21.500			-3.071
190204.000			-21.501			-3.072
190305.000			-21.500			-3.071
190403.000			-21.500			-3.071
190504.000			-21.500			-3.071
190604.000			-21.499			-3.071
190704.000			-21.499			-3.071
190804.000			-21.498			-3.071
190905.000			-21.498			-3.071
191004.000			-21.498			-3.071
191104.000			-21.496			-3.071
191205.000			-21.497			-3.071
191304.000			-21.498			-3.071
191404.000			-21.497			-3.071
191504.000			-21.498			-3.071
191604.000			-21.497			-3.071
191704.000			-21.497			-3.071
191805.000			-21.498			-3.071
191904.000			-21.496			-3.071
192004.000			-21.495			-3.071
192105.000			-21.496			-3.071
192204.000			-21.495			-3.071
192304.000			-21.495			-3.071
192404.000			-21.494			-3.071
192504.000			-21.493			-3.070
192604.000			-21.494			-3.071
192705.000			-21.495			-3.071
192804.000			-21.494			-3.071
192904.000			-21.493			-3.070
193005.000			-21.492			-3.070
193104.000			-21.492			-3.070
193205.000			-21.492			-3.070
193303.000			-21.492			-3.070
193404.000			-21.492			-3.070
193505.000			-21.492			-3.070
193604.000			-21.491			-3.070
193704.000			-21.491			-3.070
193805.000			-21.491			-3.070
193904.000			-21.491			-3.070
194004.000			-21.490			-3.070
194105.000			-21.490			-3.070
194203.000			-21.490			-3.070
194304.000			-21.490			-3.070
194405.000			-21.491			-3.070
194504.000			-21.490			-3.070
194604.000			-21.489			-3.070
194705.000			-21.489			-3.070
194804.000			-21.488			-3.070
194904.000			-21.487			-3.070
195005.000			-21.487			-3.070
195103.000			-21.487			-3.070
195204.000			-21.488			-3.070
195305.000			-21.487			-3.070
195404.000			-21.487			-3.070
195504.000			-21.486			-3.069
195605.000			-21.487			-3.070
195704.000			-21.485			-3.069
195804.000			-21.486			-3.069
195905.000			-21.485			-3.069
196003.000			-21.485			-3.069
196104.000			-21.485			-3.069
196205.000			-21.484			-3.069
196304.000			-21.484			-3.069
196405.000			-21.484			-3.069
196504.000			-21.484			-3.069
196604.000			-21.484			-3.069
196705.000			-21.484			-3.069
196804.000			-21.485			-3.069
196903.000			-21.483			-3.069
197005.000			-21.482			-3.069
197103.000			-21.482			-3.069
197204.000			-21.482			-3.069
197305.000			-21.481			-3.069
197404.000			-21.482			-3.069
197504.000			-21.482			-3.069
197605.000			-21.482			-3.069
197704.000			-21.482			-3.069
197803.000			-21.481			-3.069
197905.000			-21.480			-3.069
198003.000			-21.480			-3.069
198104.000			-21.480			-3.069
198205.000			-21.481			-3.069
198304.000			-21.480			-3.069
198404.000			-21.480			-3.069
198505.000			-21.479			-3.068
198604.000			-21.479			-3.068
198703.000			-21.479			-3.068
198805.000			-21.478			-3.068
198903.000			-21.478			-3.068
199004.000			-21.478			-3.068
199105.000			-21.477			-3.068
199204.000			-21.477			-3.068
199304.000			-21.477			-3.068
199404.000			-21.476			-3.068
199504.000			-21.476			-3.068
199605.000			-21.476			-3.068
199704.000			-21.476			-3.068
199803.000			-21.476			-3.068
199905.000			-21.475			-3.068
200004.000			-21.474			-3.068
200104.000			-21.475			-3.068
200205.000			-21.475			-3.068
200304.000			-21.475			-3.068
200404.000			-21.474			-3.068
200504.000			-21.473			-3.068
200604.000			-21.473			-3.068
200703.000			-21.474			-3.068
200805.000			-21.472			-3.067
200904.000			-21.472			-3.067
201004.000			-21.471			-3.067
201105.000			-21.471			-3.067
201204.000			-21.471			-3.067
201304.000			-21.471			-3.067
201404.000			-21.471			-3.067
201504.000			-21.471			-3.067
201604.000			-21.472			-3.067
201705.000			-21.471			-3.067
201804.000			-21.470			-3.067
201904.000			-21.471			-3.067
202005.000			-21.471			-3.067
202103.000			-21.470			-3.067
202204.000			-21.468			-3.067
202304.000			-21.470			-3.067
202404.000			-21.469			-3.067
202504.000			-21.469			-3.067
202604.000			-21.469			-3.067
202704.000			-21.468			-3.067
202805.000			-21.468			-3.067
202904.000			-21.468			-3.067
203003.000			-21.467			-3.067
203105.000			-21.467			-3.067
203204.000			-21.467			-3.067
203304.000			-21.465			-3.066
203405.000			-21.466			-3.067
203504.000			-21.467			-3.067
203604.000			-21.466			-3.067
203705.000			-21.465			-3.066
203804.000			-21.465			-3.066
203903.000			-21.465			-3.066
204005.000			-21.466			-3.067
204104.000			-21.465			-3.066
204204.000			-21.464			-3.066
204305.000			-21.464			-3.066
204404.000			-21.463			-3.066
204504.000			-21.464			-3.066
204604.000			-21.463			-3.066
204704.000			-21.462			-3.066
204803.000			-21.463			-3.066
204905.000			-21.463			-3.066
205004.000			-21.462			-3.066
205104.000			-21.462			-3.066
205205.000			-21.462			-3.066
205304.000			-21.461			-3.066
205404.000			-21.461			-3.066
205504.000			-21.461			-3.066
205604.000			-21.461			-3.066
205704.000			-21.460			-3.066
205804.000			-21.460			-3.066
205904.000			-21.460			-3.066
206005.000			-21.461			-3.066
206104.000			-21.460			-3.066
206204.000			-21.459			-3.066
206305.000			-21.459			-3.066
206403.000			-21.460			-3.066
206504.000			-21.460			-3.066
206605.000			-21.460			-3.066
206704.000			-21.458			-3.065
206804.000			-21.457			-3.065
206905.000			-21.457			-3.065
207004.000			-21.456			-3.065
207104.000			-21.456			-3.065
207205.000			-21.457			-3.065
207303.000			-21.458			-3.065
207404.000			-21.456			-3.065
207505.000			-21.456			-3.065
207604.000			-21.456			-3.065
207704.000			-21.456			-3.065
207805.000			-21.455			-3.065
207904.000			-21.455			-3.065
208003.000			-21.455			-3.065
208105.000			-21.455			-3.065
208203.000			-21.455			-3.065
208304.000			-21.455			-3.065
208405.000			-21.454			-3.065
208504.000			-21.453			-3.065
208604.000			-21.453			-3.065
208705.000			-21.452			-3.065
208804.000			-21.454			-3.065
208903.000			-21.453			-3.065
209005.000			-21.452			-3.065
209104.000			-21.452			-3.065
209205.000			-21.452			-3.065
209304.000			-21.451			-3.064
209404.000			-21.451			-3.064
209505.000			-21.452			-3.065
209604.000			-21.452			-3.065
209704.000			-21.452			-3.065
209804.000			-21.451			-3.064
209904.000			-21.451			-3.064
210004.000			-21.451			-3.064
210105.000			-21.450			-3.064
210204.000			-21.449			-3.064
210304.000			-21.450			-3.064
210405.000			-21.449			-3.064
210504.000			-21.448			-3.064
210604.000			-21.448			-3.064
210704.000			-21.449			-3.064
210804.000			-21.448			-3.064
210904.000			-21.449			-3.064
211005.000			-21.449			-3.064
211104.000			-21.449			-3.064
211204.000			-21.447			-3.064
211305.000			-21.447			-3.064
211403.000			-21.447			-3.064
211504.000			-21.448			-3.064
211605.000			-21.447			-3.064
211704.000			-21.446			-3.064
211804.000			-21.446			-3.064
211905.000			-21.446			-3.064
212004.000			-21.445			-3.064
212104.000			-21.445			-3.064
212205.000			-21.446			-3.064
212303.000			-21.446			-3.064
212405.000			-21.444			-3.063
212504.000			-21.444			-3.063
212604.000			-21.444			-3.063
212705.000			-21.443			-3.063
212804.000			-21.443			-3.063
212904.000			-21.443			-3.063
213004.000			-21.443			-3.063
213104.000			-21.442			-3.063
213204.000			-21.442			-3.063
213305.000			-21.442			-3.063
213404.000			-21.442			-3.063
213504.000			-21.443			-3.063
213605.000			-21.442			-3.063
213703.000			-21.441			-3.063
213804.000			-21.441			-3.063
213904.000			-21.440			-3.063
214004.000			-21.440			-3.063
214104.000			-21.440			-3.063
214205.000			-21.441			-3.063
214304.000			-21.440			-3.063
214404.000			-21.441			-3.063
214505.000			-21.441			-3.063
214603.000			-21.439			-3.063
214704.000			-21.438			-3.063
214805.000			-21.438			-3.063
214904.000			-21.438			-3.063
215004.000			-21.439			-3.063
215105.000			-21.439			-3.063
215204.000			-21.438			-3.063
215303.000			-21.438			-3.063
215405.000			-21.437			-3.062
215504.000			-21.437			-3.062
215605.000			-21.437			-3.062
215704.000			-21.436			-3.062
215804.000			-21.436			-3.062
215905.000			-21.436			-3.062
216004.000			-21.435			-3.062
216104.000			-21.436			-3.062
216204.000			-21.435			-3.062
216304.000			-21.434			-3.062
216404.000			-21.434			-3.062
216505.000			-21.435			-3.062
216604.000			-21.435			-3.062
216704.000			-21.435			-3.062
216805.000			-21.434			-3.062
216904.000			-21.433			-3.062
217004.000			-21.433			-3.062
217104.000			-21.434			-3.062
217204.000			-21.433			-3.062
217304.000			-21.433			-3.062
217405.000			-21.433			-3.062
217504.000			-21.433			-3.062
217604.000			-21.433			-3.062
217705.000			-21.432			-3.062
217803.000			-21.432			-3.062
217904.000			-21.431			-3.062
218004.000			-21.431			-3.062
218104.000			-21.430			-3.061
218204.000			-21.431			-3.062
218305.000			-21.431			-3.062
218404.000			-21.430			-3.061
218504.000			-21.430			-3.061
218605.000			-21.430			-3.061
218703.000			-21.430			-3.061
218805.000			-21.430			-3.061
218904.000			-21.429			-3.061
219004.000			-21.428			-3.061
219105.000			-21.428			-3.061
219204.000			-21.429			-3.061
219304.000			-21.429			-3.061
219405.000			-21.429			-3.061
219504.000			-21.428			-3.061
219603.000			-21.427			-3.061
219705.000			-21.428			-3.061
219804.000			-21.428			-3.061
219904.000			-21.427			-3.061
220005.000			-21.427			-3.061
220104.000			-21.427			-3.061
220204.000			-21.426			-3.061
220305.000			-21.425			-3.061
220404.000			-21.426			-3.061
220503.000			-21.427			-3.061
220605.000			-21.426			-3.061
220704.000			-21.425			-3.061
220804.000			-21.424			-3.061
220905.000			-21.425			-3.061
221004.000			-21.425			-3.061
221104.000			-21.425			-3.061
221204.000			-21.425			-3.061
221304.000			-21.424			-3.061
221404.000			-21.424			-3.061
221505.000			-21.424			-3.061
221604.000			-21.424			-3.061
221704.000			-21.424			-3.061
221805.000			-21.423			-3.060
221904.000			-21.422			-3.060
222005.000			-21.422			-3.060
222103.000			-21.422			-3.060
222204.000			-21.422			-3.060
222305.000			-21.422			-3.060
222404.000			-21.422			-3.060
222504.000			-21.421			-3.060
222605.000			-21.422			-3.060
222704.000			-21.422			-3.060
222803.000			-21.420			-3.060
222905.000			-21.422			-3.060
223004.000			-21.421			-3.060
223104.000			-21.418			-3.060
223205.000			-21.420			-3.060
223304.000			-21.418			-3.060
223404.000			-21.418			-3.060
223505.000			-21.419			-3.060
223604.000			-21.419			-3.060
223703.000			-21.419			-3.060
223805.000			-21.419			-3.060
223904.000			-21.419			-3.060
224004.000			-21.417			-3.060
224105.000			-21.417			-3.060
224204.000			-21.417			-3.060
224304.000			-21.418			-3.060
224404.000			-21.418			-3.060
224504.000			-21.417			-3.060
224603.000			-21.417			-3.060
224705.000			-21.416			-3.059
224804.000			-21.415			-3.059
224904.000			-21.415			-3.059
225005.000			-21.416			-3.059
225104.000			-21.416			-3.059
225205.000			-21.414			-3.059
225303.000			-21.414			-3.059
225404.000			-21.414			-3.059
225505.000			-21.414			-3.059
225604.000			-21.414			-3.059
225704.000			-21.414			-3.059
225805.000			-21.414			-3.059
225904.000			-21.413			-3.059
226004.000			-21.413			-3.059
226105.000			-21.412			-3.059
226203.000			-21.412			-3.059
226304.000			-21.413			-3.059
226405.000			-21.413			-3.059
226504.000			-21.412			-3.059
226604.000			-21.411			-3.059
226705.000			-21.411			-3.059
226804.000			-21.412			-3.059
226903.000			-21.411			-3.059
227005.000			-21.410			-3.059
227104.000			-21.410			-3.059
227204.000			-21.409			-3.058
227305.000			-21.409			-3.058
227404.000			-21.410			-3.059
227504.000			-21.409			-3.058
227605.000			-21.409			-3.058
227704.000			-21.409			-3.058
227803.000			-21.408			-3.058
227905.000			-21.408			-3.058
228004.000			-21.408			-3.058
228104.000			-21.408			-3.058
228205.000			-21.407			-3.058
228304.000			-21.409			-3.058
228405.000			-21.408			-3.058
228504.000			-21.408			-3.058
228604.000			-21.407			-3.058
228704.000			-21.407			-3.058
228804.000			-21.408			-3.058
228904.000			-21.407			-3.058
229005.000			-21.406			-3.058
229104.000			-21.407			-3.058
229204.000			-21.405			-3.058
229305.000			-21.405			-3.058
229403.000			-21.405			-3.058
229504.000			-21.404			-3.058
229605.000			-21.405			-3.058
229704.000			-21.405			-3.058
229804.000			-21.404			-3.058
229905.000			-21.404			-3.058
230004.000			-21.404			-3.058
230104.000			-21.405			-3.058
230205.000			-21.404			-3.058
230303.000			-21.404			-3.058
230404.000			-21.403			-3.058
230505.000			-21.401			-3.057
230604.000			-21.402			-3.057
230704.000			-21.403			-3.058
230805.000			-21.403			-3.058
230904.000			-21.402			-3.057
231003.000			-21.403			-3.058
231105.000			-21.402			-3.057
231204.000			-21.401			-3.057
231304.000			-21.401			-3.057
231405.000			-21.400			-3.057
231504.000			-21.400			-3.057
231605.000			-21.400			-3.057
231704.000			-21.399			-3.057
231804.000			-21.400			-3.057
231904.000			-21.399			-3.057
232004.000			-21.399			-3.057
232104.000			-21.399			-3.057
232205.000			-21.398			-3.057
232304.000			-21.398			-3.057
232404.000			-21.398			-3.057
232505.000			-21.398			-3.057
232603.000			-21.399			-3.057
232704.000			-21.398			-3.057
232804.000			-21.397			-3.057
232904.000			-21.397			-3.057
233004.000			-21.398			-3.057
233105.000			-21.397			-3.057
233204.000			-21.397			-3.057
233304.000			-21.396			-3.057
233405.000			-21.397			-3.057
233503.000			-21.397			-3.057
233604.000			-21.395			-3.056
233704.000			-21.396			-3.057
233804.000			-21.396			-3.057
233904.000			-21.395			-3.056
234005.000			-21.395			-3.056
234104.000			-21.394			-3.056
234204.000			-21.394			-3.056
234305.000			-21.395			-3.056
234403.000			-21.395			-3.056
234504.000			-21.394			-3.056
234605.000			-21.394			-3.056
234704.000			-21.393			-3.056
234805.000			-21.393			-3.056
234904.000			-21.392			-3.056
235004.000			-21.393			-3.056
235105.000			-21.393			-3.056
235204.000			-21.393			-3.056
235303.000			-21.392			-3.056
235405.000			-21.392			-3.056
235504.000			-21.391			-3.056
235604.000			-21.391			-3.056
235705.000			-21.392			-3.056
235804.000			-21.391			-3.056
235904.000			-21.391			-3.056
236005.000			-21.391			-3.056
236104.000			-21.391			-3.056
236203.000			-21.390			-3.056
236305.000			-21.390			-3.056
236404.000			-21.391			-3.056
236504.000			-21.391			-3.056
236605.000			-21.391			-3.056
236704.000			-21.390			-3.056
236804.000			-21.389			-3.056
236904.000			-21.389			-3.056
237004.000			-21.389			-3.056
237103.000			-21.388			-3.055
237205.000			-21.388			-3.055
237304.000			-21.388			-3.055
237404.000			-21.388			-3.055
237505.000			-21.387			-3.055
237604.000			-21.387			-3.055
237704.000			-21.387			-3.055
237804.000			-21.386			-3.055
237904.000			-21.386			-3.055
238004.000			-21.387			-3.055
238104.000			-21.388			-3.055
238204.000			-21.386			-3.055
238305.000			-21.386			-3.055
238404.000			-21.386			-3.055
238504.000			-21.386			-3.055
238605.000			-21.386			-3.055
238704.000			-21.384			-3.055
238804.000			-21.385			-3.055
238904.000			-21.385			-3.055
239004.000			-21.384			-3.055
239104.000			-21.384			-3.055
239205.000			-21.384			-3.055
239304.000			-21.385			-3.055
239404.000			-21.384			-3.055
239505.000			-21.383			-3.055
239604.000			-21.383			-3.055
239704.000			-21.383			-3.055
239804.000			-21.383			-3.055
239904.000			-21.383			-3.055
240004.000			-21.383			-3.055
240105.000			-21.383			-3.055
240204.000			-21.382			-3.055
240304.000			-21.382			-3.055
240405.000			-21.381			-3.054
240503.000			-21.381			-3.054
240604.000			-21.380			-3.054
240704.000			-21.380			-3.054
240804.000			-21.380			-3.054
240904.000			-21.381			-3.054
241004.000			-21.380			-3.054
241104.000			-21.380			-3.054
241205.000			-21.380			-3.054
241304.000			-21.379			-3.054
241403.000			-21.380			-3.054
241505.000			-21.379			-3.054
241604.000			-21.379			-3.054
241704.000			-21.378			-3.054
241805.000			-21.378			-3.054
241904.000			-21.379			-3.054
242004.000			-21.378			-3.054
242105.000			-21.378			-3.054
242204.000			-21.378			-3.054
242303.000			-21.377			-3.054
242405.000			-21.376			-3.054
242504.000			-21.377			-3.054
242604.000			-21.378			-3.054
242705.000			-21.377			-3.054
242804.000			-21.376			-3.054
242904.000			-21.376			-3.054
243005.000			-21.376			-3.054
243104.000			-21.376			-3.054
243203.000			-21.375			-3.054
243305.000			-21.376			-3.054
243404.000			-21.376			-3.054
243504.000			-21.375			-3.054
243605.000			-21.375			-3.054
243704.000			-21.375			-3.054
243804.000			-21.374			-3.053
243904.000			-21.374			-3.053
244004.000			-21.375			-3.054
244103.000			-21.374			-3.053
244205.000			-21.375			-3.054
244304.000			-21.374			-3.053
244405.000			-21.373			-3.053
244504.000			-21.373			-3.053
244604.000			-21.373			-3.053
244705.000			-21.373			-3.053
244803.000			-21.372			-3.053
244904.000			-21.372			-3.053
245004.000			-21.372			-3.053
245104.000			-21.372			-3.053
245204.000			-21.371			-3.053
245305.000			-21.371			-3.053
245404.000			-21.372			-3.053
245504.000			-21.371			-3.053
245605.000			-21.371			-3.053
245703.000			-21.370			-3.053
245804.000			-21.371			-3.053
245905.000			-21.370			-3.053
246004.000			-21.369			-3.053
246104.000			-21.370			-3.053
246205.000			-21.370			-3.053
246304.000			-21.370			-3.053
246404.000			-21.369			-3.053
246505.000			-21.369			-3.053
246603.000			-21.368			-3.053
246704.000			-21.368			-3.053
246805.000			-21.369			-3.053
246904.000			-21.369			-3.053
247004.000			-21.368			-3.053
247105.000			-21.367			-3.052
247204.000			-21.368			-3.053
247304.000			-21.368			-3.053
247405.000			-21.368			-3.053
247503.000			-21.367			-3.052
247605.000			-21.367			-3.052
247704.000			-21.366			-3.052
247804.000			-21.366			-3.052
247905.000			-21.368			-3.053
248004.000			-21.366			-3.052
248104.000			-21.366			-3.052
248205.000			-21.365			-3.052
248304.000			-21.365			-3.052
248403.000			-21.365			-3.052
248505.000			-21.365			-3.052
248604.000			-21.365			-3.052
248704.000			-21.365			-3.052
248805.000			-21.364			-3.052
248904.000			-21.364			-3.052
249004.000			-21.364			-3.052
249105.000			-21.364			-3.052
249204.000			-21.365			-3.052
249303.000			-21.363			-3.052
249405.000			-21.364			-3.052
249504.000			-21.364			-3.052
249604.000			-21.363			-3.052
249705.000			-21.362			-3.052
249804.000			-21.362			-3.052
249904.000			-21.362			-3.052
250005.000			-21.362			-3.052
250104.000			-21.361			-3.052
250203.000			-21.361			-3.052
250305.000			-21.361			-3.052
250404.000			-21.361			-3.052
250504.000			-21.361			-3.052
250605.000			-21.361			-3.052
250704.000			-21.360			-3.051
250805.000			-21.360			-3.051
250904.000			-21.359			-3.051
251004.000			-21.359			-3.051
251104.000			-21.359			-3.051
251204.000			-21.358			-3.051
251304.000			-21.358			-3.051
251405.000			-21.359			-3.051
251504.000			-21.359			-3.051
251604.000			-21.358			-3.051
251705.000			-21.357			-3.051
251803.000			-21.358			-3.051
251904.000			-21.358			-3.051
252004.000			-21.358			-3.051
252104.000			-21.358			-3.051
252204.000			-21.357			-3.051
252305.000			-21.357			-3.051
252404.000			-21.357			-3.051
252504.000			-21.356			-3.051
252605.000			-21.357			-3.051
252703.000			-21.356			-3.051
252804.000			-21.355			-3.051
252905.000			-21.355			-3.051
253004.000			-21.355			-3.051
253104.000			-21.355			-3.051
253205.000			-21.356			-3.051
253304.000			-21.355			-3.051
253404.000			-21.355			-3.051
253505.000			-21.354			-3.051
253603.000			-21.355			-3.051
253704.000			-21.354			-3.051
253805.000			-21.353			-3.050
253904.000			-21.353			-3.050
254005.000			-21.353			-3.050
254104.000			-21.353			-3.050
254204.000			-21.353			-3.050
254305.000			-21.353			-3.050
254404.000			-21.352			-3.050
254503.000			-21.352			-3.050
254605.000			-21.352			-3.050
254704.000			-21.351			-3.050
254804.000			-21.352			-3.050
254905.000			-21.352			-3.050
255004.000			-21.352			-3.050
255104.000			-21.351			-3.050
255205.000			-21.350			-3.050
255304.000			-21.350			-3.050
255403.000			-21.351			-3.050
255505.000			-21.351			-3.050
255604.000			-21.350			-3.050
255704.000			-21.349			-3.050
255805.000			-21.350			-3.050
255904.000			-21.350			-3.050
256004.000			-21.350			-3.050
256105.000			-21.349			-3.050
256204.000			-21.349			-3.050
256303.000			-21.348			-3.050
256405.000			-21.348			-3.050
256504.000			-21.349			-3.050
256604.000			-21.347			-3.050
256705.000			-21.346			-3.049
256804.000			-21.347			-3.050
256904.000			-21.348			-3.050
257004.000			-21.347			-3.050
257104.000			-21.347			-3.050
257204.000			-21.347			-3.050
257304.000			-21.348			-3.050
257404.000			-21.347			-3.050
257505.000			-21.346			-3.049
257604.000			-21.346			-3.049
257704.000			-21.347			-3.050
257805.000			-21.346			-3.049
257904.000			-21.346			-3.049
258004.000			-21.346			-3.049
258104.000			-21.345			-3.049
258204.000			-21.345			-3.049
258304.000			-21.345			-3.049
258405.000			-21.344			-3.049
258504.000			-21.345			-3.049
258604.000			-21.344			-3.049
258705.000			-21.344			-3.049
258804.000			-21.344			-3.049
258904.000			-21.344			-3.049
259004.000			-21.343			-3.049
259104.000			-21.343			-3.049
259204.000			-21.344			-3.049
259305.000			-21.343			-3.049
259404.000			-21.343			-3.049
259504.000			-21.342			-3.049
259605.000			-21.341			-3.049
259704.000			-21.342			-3.049
259804.000			-21.341			-3.049
259904.000			-21.341			-3.049
260004.000			-21.341			-3.049
260104.000			-21.341			-3.049
260204.000			-21.341			-3.049
260304.000			-21.340			-3.049
260405.000			-21.341			-3.049
260504.000			-21.341			-3.049
260604.000			-21.340			-3.049
260705.000			-21.340			-3.049
260803.000			-21.339			-3.048
260904.000			-21.340			-3.049
261005.000			-21.339			-3.048
261104.000			-21.339			-3.048
261204.000			-21.339			-3.048
261305.000			-21.339			-3.048
261404.000			-21.340			-3.049
261503.000			-21.340			-3.049
261605.000			-21.339			-3.048
261703.000			-21.339			-3.048
261804.000			-21.340			-3.049
261905.000			-21.339			-3.048
262004.000			-21.337			-3.048
262104.000			-21.337			-3.048
262205.000			-21.338			-3.048
262304.000			-21.337			-3.048
262403.000			-21.336			-3.048
262505.000			-21.337			-3.048
262603.000			-21.337			-3.048
262704.000			-21.335			-3.048
262805.000			-21.335			-3.048
262904.000			-21.336			-3.048
263004.000			-21.336			-3.048
263105.000			-21.335			-3.048
263204.000			-21.336			-3.048
263303.000			-21.336			-3.048
263405.000			-21.336			-3.048
263504.000			-21.335			-3.048
263605.000			-21.335			-3.048
263704.000			-21.334			-3.048
263804.000			-21.334			-3.048
263905.000			-21.334			-3.048
264004.000			-21.334			-3.048
264104.000			-21.333			-3.048
264204.000			-21.333			-3.048
264304.000			-21.332			-3.047
264404.000			-21.332			-3.047
264505.000			-21.332			-3.047
264604.000			-21.332			-3.047
264704.000			-21.332			-3.047
264805.000			-21.332			-3.047
264903.000			-21.331			-3.047
265004.000			-21.331			-3.047
265104.000			-21.331			-3.047
265204.000			-21.331			-3.047
265304.000			-21.331			-3.047
265405.000			-21.331			-3.047
265504.000			-21.330			-3.047
265604.000			-21.329			-3.047
265705.000			-21.330			-3.047
265803.000			-21.330			-3.047
265904.000			-21.331			-3.047
266005.000			-21.329			-3.047
266104.000			-21.328			-3.047
266204.000			-21.329			-3.047
266305.000			-21.330			-3.047
266404.000			-21.329			-3.047
266504.000			-21.328			-3.047
266605.000			-21.329			-3.047
266703.000			-21.329			-3.047
266805.000			-21.328			-3.047
266904.000			-21.327			-3.047
267004.000			-21.328			-3.047
267105.000			-21.327			-3.047
267204.000			-21.327			-3.047
267304.000			-21.327			-3.047
267405.000			-21.327			-3.047
267504.000			-21.326			-3.047
267603.000			-21.327			-3.047
267705.000			-21.327			-3.047
267804.000			-21.327			-3.047
267904.000			-21.326			-3.047
268005.000			-21.325			-3.046
268104.000			-21.325			-3.046
268204.000			-21.325			-3.046
268304.000			-21.324			-3.046
268404.000			-21.325			-3.046
268503.000			-21.325			-3.046
268605.000			-21.325			-3.046
268704.000			-21.324			-3.046
268804.000			-21.325			-3.046
268905.000			-21.324			-3.046
269004.000			-21.323			-3.046
269104.000			-21.323			-3.046
269204.000			-21.324			-3.046
269304.000			-21.323			-3.046
269404.000			-21.323			-3.046
269505.000			-21.322			-3.046
269604.000			-21.323			-3.046
269704.000			-21.324			-3.046
269805.000			-21.322			-3.046
269904.000			-21.322			-3.046
270005.000			-21.322			-3.046
270103.000			-21.322			-3.046
270204.000			-21.322			-3.046
270305.000			-21.320			-3.046
270404.000			-21.321			-3.046
270504.000			-21.321			-3.046
270605.000			-21.320			-3.046
270704.000			-21.320			-3.046
270803.000			-21.320			-3.046
270905.000			-21.320			-3.046
271004.000			-21.320			-3.046
271104.000			-21.320			-3.046
271205.000			-21.320			-3.046
271304.000			-21.319			-3.046
271404.000			-21.320			-3.046
271505.000			-21.319			-3.046
271604.000			-21.318			-3.045
271703.000			-21.318			-3.045
271805.000			-21.317			-3.045
271904.000			-21.317			-3.045
272004.000			-21.317			-3.045
272105.000			-21.317			-3.045
272204.000			-21.317			-3.045
272304.000			-21.317			-3.045
272404.000			-21.317			-3.045
272504.000			-21.318			-3.045
272603.000			-21.318			-3.045
272705.000			-21.317			-3.045
272804.000			-21.316			-3.045
272904.000			-21.316			-3.045
273005.000			-21.317			-3.045
273104.000			-21.317			-3.045
273205.000			-21.316			-3.045
273303.000			-21.315			-3.045
273404.000			-21.315			-3.045
273505.000			-21.315			-3.045
273604.000			-21.316			-3.045
273704.000			-21.316			-3.045
273805.000			-21.315			-3.045
273904.000			-21.314			-3.045
274004.000			-21.314			-3.045
274105.000			-21.313			-3.045
274203.000			-21.314			-3.045
274304.000			-21.315			-3.045
274405.000			-21.313			-3.045
274504.000			-21.313			-3.045
274604.000			-21.313			-3.045
274705.000			-21.313			-3.045
274804.000			-21.314			-3.045
274903.000			-21.313			-3.045
275005.000			-21.312			-3.045
275103.000			-21.311			-3.044
275204.000			-21.311			-3.044
275305.000			-21.312			-3.045
275404.000			-21.312			-3.045
275504.000			-21.312			-3.045
275605.000			-21.312			-3.045
275704.000			-21.312			-3.045
275803.000			-21.312			-3.045
275905.000			-21.312			-3.045
276004.000			-21.311			-3.044
276104.000			-21.311			-3.044
276205.000			-21.309			-3.044
276304.000			-21.310			-3.044
276405.000			-21.311			-3.044
276504.000			-21.309			-3.044
276604.000			-21.310			-3.044
276704.000			-21.310			-3.044
276804.000			-21.309			-3.044
276904.000			-21.310			-3.044
277005.000			-21.308			-3.044
277104.000			-21.307			-3.044
277204.000			-21.308			-3.044
277305.000			-21.308			-3.044
277404.000			-21.307			-3.044
277504.000			-21.307			-3.044
277604.000			-21.308			-3.044
277704.000			-21.307			-3.044
277804.000			-21.306			-3.044
277905.000			-21.306			-3.044
278004.000			-21.307			-3.044
278104.000			-21.306			-3.044
278205.000			-21.307			-3.044
278304.000			-21.306			-3.044
278404.000			-21.306			-3.044
278504.000			-21.306			-3.044
278604.000			-21.305			-3.044
278704.000			-21.305			-3.044
278805.000			-21.305			-3.044
278904.000			-21.304			-3.043
279004.000			-21.305			-3.044
279105.000			-21.306			-3.044
279203.000			-21.304			-3.043
279304.000			-21.303			-3.043
279403.000			-21.304			-3.043
279504.000			-21.303			-3.043
279605.000			-21.304			-3.043
279704.000			-21.304			-3.043
279804.000			-21.303			-3.043
279905.000			-21.303			-3.043
280004.000			-21.301			-3.043
280103.000			-21.302			-3.043
280205.000			-21.303			-3.043
280304.000			-21.302			-3.043
280404.000			-21.302			-3.043
280505.000			-21.301			-3.043
280604.000			-21.302			-3.043
280704.000			-21.303			-3.043
280804.000			-21.302			-3.043
280904.000			-21.302			-3.043
281003.000			-21.302			-3.043
281105.000			-21.301			-3.043
281204.000			-21.301			-3.043
281304.000			-21.300			-3.043
281405.000			-21.301			-3.043
281504.000			-21.301			-3.043
281604.000			-21.299			-3.043
281704.000			-21.300			-3.043
281804.000			-21.299			-3.043
281904.000			-21.300			-3.043
282005.000			-21.300			-3.043
282104.000			-21.299			-3.043
282204.000			-21.299			-3.043
282305.000			-21.300			-3.043
282404.000			-21.299			-3.043
282504.000			-21.300			-3.043
282603.000			-21.297			-3.042
282704.000			-21.299			-3.043
282805.000			-21.299			-3.043
282904.000			-21.299			-3.043
283004.000			-21.298			-3.043
283105.000			-21.298			-3.043
283204.000			-21.297			-3.042
283304.000			-21.298			-3.043
283405.000			-21.297			-3.042
283503.000			-21.296			-3.042
283604.000			-21.297			-3.042
283704.000			-21.297			-3.042
283804.000			-21.297			-3.042
283904.000			-21.296			-3.042
284005.000			-21.297			-3.042
284104.000			-21.296			-3.042
284204.000			-21.295			-3.042
284305.000			-21.295			-3.042
284403.000			-21.295			-3.042
284504.000			-21.294			-3.042
284604.000			-21.294			-3.042
284704.000			-21.295			-3.042
284804.000			-21.294			-3.042
284905.000			-21.294			-3.042
285004.000			-21.294			-3.042
285104.000			-21.294			-3.042
285205.000			-21.294			-3.042
285303.000			-21.294			-3.042
285404.000			-21.294			-3.042
285504.000			-21.293			-3.042
285604.000			-21.293			-3.042
285704.000			-21.293			-3.042
285804.000			-21.293			-3.042
285904.000			-21.293			-3.042
286005.000			-21.292			-3.042
286104.000			-21.291			-3.042
286203.000			-21.292			-3.042
286305.000			-21.291			-3.042
286403.000			-21.291			-3.042
286504.000			-21.291			-3.042
286605.000			-21.291			-3.042
286704.000			-21.291			-3.042
286804.000			-21.291			-3.042
286905.000			-21.291			-3.042
287004.000			-21.292			-3.042
287103.000			-21.291			-3.042
287205.000			-21.292			-3.042
287304.000			-21.291			-3.042
287404.000			-21.290			-3.041
287505.000			-21.289			-3.041
287604.000			-21.288			-3.041
287704.000			-21.287			-3.041
287805.000			-21.288			-3.041
287904.000			-21.289			-3.041
288003.000			-21.288			-3.041
288105.000			-21.288			-3.041
288203.000			-21.289			-3.041
288304.000			-21.289			-3.041
288405.000			-21.289			-3.041
288504.000			-21.288			-3.041
288604.000			-21.288			-3.041
288705.000			-21.288			-3.041
288804.000			-21.288			-3.041
288904.000			-21.288			-3.041
289005.000			-21.287			-3.041
289103.000			-21.288			-3.041
289205.000			-21.288			-3.041
289304.000			-21.286			-3.041
289404.000			-21.286			-3.041
289505.000			-21.286			-3.041
289604.000			-21.285			-3.041
289704.000			-21.286			-3.041
289805.000			-21.284			-3.041
289904.000			-21.285			-3.041
290003.000			-21.287			-3.041
290105.000			-21.285			-3.041
290204.000			-21.285			-3.041
290304.000			-21.286			-3.041
290405.000			-21.285			-3.041
290504.000			-21.284			-3.041
290604.000			-21.284			-3.041
290704.000			-21.285			-3.041
290804.000			-21.284			-3.041
290903.000			-21.284			-3.041
291005.000			-21.284			-3.041
291104.000			-21.284			-3.041
291204.000			-21.283			-3.040
291305.000			-21.282			-3.040
291404.000			-21.282			-3.040
291504.000			-21.283			-3.040
291604.000			-21.282			-3.040
291704.000			-21.281			-3.040
291803.000			-21.282			-3.040
291905.000			-21.281			-3.040
292004.000			-21.282			-3.040
292104.000			-21.281			-3.040
292205.000			-21.281			-3.040
292304.000			-21.281			-3.040
292405.000			-21.281			-3.040
292503.000			-21.280			-3.040
292604.000			-21.280			-3.040
292705.000			-21.280			-3.040
292804.000			-21.280			-3.040
292904.000			-21.279			-3.040
293005.000			-21.279			-3.040
293104.000			-21.280			-3.040
293204.000			-21.280			-3.040
293305.000			-21.279			-3.040
293403.000			-21.280			-3.040
293504.000			-21.279			-3.040
293604.000			-21.279			-3.040
293704.000			-21.278			-3.040
293804.000			-21.278			-3.040
293905.000			-21.279			-3.040
294004.000			-21.278			-3.040
294104.000			-21.277			-3.040
294205.000			-21.277			-3.040
294304.000			-21.277			-3.040
294404.000			-21.277			-3.040
294504.000			-21.276			-3.039
294604.000			-21.276			-3.039
294704.000			-21.277			-3.040
294805.000			-21.277			-3.040
294904.000			-21.277			-3.040
295004.000			-21.277			-3.040
295105.000			-21.275			-3.039
295204.000			-21.276			-3.039
295304.000			-21.276			-3.039
295403.000			-21.276			-3.039
295504.000			-21.276			-3.039
295605.000			-21.274			-3.039
295704.000			-21.274			-3.039
295804.000			-21.275			-3.039
295905.000			-21.276			-3.039
296004.000			-21.276			-3.039
296104.000			-21.274			-3.039
296205.000			-21.273			-3.039
296303.000			-21.274			-3.039
296404.000			-21.273			-3.039
296505.000			-21.273			-3.039
296604.000			-21.273			-3.039
296704.000			-21.274			-3.039
296805.000			-21.275			-3.039
296904.000			-21.275			-3.039
297004.000			-21.272			-3.039
297105.000			-21.273			-3.039
297203.000			-21.273			-3.039
297304.000			-21.272			-3.039
297405.000			-21.273			-3.039
297504.000			-21.272			-3.039
297604.000			-21.272			-3.039
297705.000			-21.271			-3.039
297804.000			-21.271			-3.039
297904.000			-21.272			-3.039
298005.000			-21.271			-3.039
298103.000			-21.270			-3.039
298204.000			-21.271			-3.039
298305.000			-21.271			-3.039
298404.000			-21.271			-3.039
298504.000			-21.270			-3.039
298604.000			-21.269			-3.038
298704.000			-21.269			-3.038
298805.000			-21.270			-3.039
298904.000			-21.269			-3.038
299003.000			-21.268			-3.038
299105.000			-21.268			-3.038
299204.000			-21.268			-3.038
299304.000			-21.268			-3.038
299405.000			-21.268			-3.038
299504.000			-21.267			-3.038
299604.000			-21.268			-3.038
299705.000			-21.268			-3.038
299804.000			-21.268			-3.038
299903.000			-21.268			-3.038
