# Acquired on 26/01/2024 14:14:34 
# SPIDER: Creep_-8mm_GRPCNT1454A-3
# CREEP MEASUREMENT

# time [ms]		force [N]		stiffness [N/mm]
1.000			35.715			-4.464
104.000			36.523			-4.565
203.000			36.348			-4.544
305.000			36.065			-4.508
404.000			35.852			-4.482
504.000			35.676			-4.459
605.000			35.524			-4.441
703.000			35.390			-4.424
804.000			35.271			-4.409
905.000			35.165			-4.396
1004.000			34.979			-4.372
1104.000			34.896			-4.362
1204.000			34.820			-4.352
1304.000			34.748			-4.343
1404.000			34.681			-4.335
1504.000			34.619			-4.327
1604.000			34.560			-4.320
1705.000			34.450			-4.306
1804.000			34.400			-4.300
1903.000			34.352			-4.294
2005.000			34.305			-4.288
2104.000			34.260			-4.283
2204.000			34.217			-4.277
2305.000			34.176			-4.272
2404.000			34.101			-4.263
2504.000			34.064			-4.258
2604.000			34.029			-4.254
2704.000			33.996			-4.250
2804.000			33.963			-4.245
2905.000			33.931			-4.241
3004.000			33.900			-4.238
3103.000			33.840			-4.230
3205.000			33.813			-4.227
3304.000			33.785			-4.223
3404.000			33.758			-4.220
3505.000			33.732			-4.217
3604.000			33.706			-4.213
3704.000			33.681			-4.210
3804.000			33.658			-4.207
3904.000			33.610			-4.201
4004.000			33.588			-4.199
4105.000			33.566			-4.196
4204.000			33.544			-4.193
4303.000			33.523			-4.190
4405.000			33.503			-4.188
4504.000			33.482			-4.185
4604.000			33.444			-4.181
4705.000			33.425			-4.178
4804.000			33.405			-4.176
4905.000			33.388			-4.173
5003.000			33.369			-4.171
5104.000			33.352			-4.169
5205.000			33.335			-4.167
5304.000			33.300			-4.163
5404.000			33.283			-4.160
5504.000			33.267			-4.158
5604.000			33.252			-4.157
5704.000			33.237			-4.155
5805.000			33.222			-4.153
5904.000			33.206			-4.151
6004.000			33.177			-4.147
6105.000			33.162			-4.145
6203.000			33.148			-4.143
6304.000			33.133			-4.142
6405.000			33.120			-4.140
6504.000			33.106			-4.138
6604.000			33.092			-4.136
6705.000			33.079			-4.135
6804.000			33.052			-4.132
6903.000			33.039			-4.130
7005.000			33.028			-4.128
7104.000			33.016			-4.127
7204.000			33.003			-4.125
7305.000			32.990			-4.124
7404.000			32.978			-4.122
7504.000			32.955			-4.119
7604.000			32.944			-4.118
7704.000			32.932			-4.117
7804.000			32.919			-4.115
7904.000			32.908			-4.114
8004.000			32.899			-4.112
8103.000			32.889			-4.111
8204.000			32.865			-4.108
8304.000			32.855			-4.107
8405.000			32.844			-4.106
8504.000			32.834			-4.104
8604.000			32.824			-4.103
8705.000			32.815			-4.102
8803.000			32.804			-4.100
8904.000			32.784			-4.098
9005.000			32.774			-4.097
9104.000			32.765			-4.096
9204.000			32.756			-4.094
9305.000			32.745			-4.093
9404.000			32.736			-4.092
9503.000			32.727			-4.091
9605.000			32.718			-4.090
9704.000			32.700			-4.087
9804.000			32.690			-4.086
9905.000			32.681			-4.085
10003.000			32.672			-4.084
10104.000			32.664			-4.083
10205.000			32.657			-4.082
10304.000			32.648			-4.081
10404.000			32.631			-4.079
10505.000			32.623			-4.078
10604.000			32.615			-4.077
10703.000			32.607			-4.076
10805.000			32.600			-4.075
10904.000			32.592			-4.074
11004.000			32.584			-4.073
11105.000			32.567			-4.071
11204.000			32.559			-4.070
11305.000			32.551			-4.069
11403.000			32.544			-4.068
11504.000			32.537			-4.067
11605.000			32.528			-4.066
11704.000			32.521			-4.065
11804.000			32.513			-4.064
11905.000			32.499			-4.062
12004.000			32.492			-4.061
12103.000			32.486			-4.061
12205.000			32.479			-4.060
12304.000			32.471			-4.059
12404.000			32.464			-4.058
12505.000			32.458			-4.057
12604.000			32.444			-4.056
12704.000			32.438			-4.055
12804.000			32.431			-4.054
12904.000			32.424			-4.053
13004.000			32.417			-4.052
13105.000			32.410			-4.051
13204.000			32.404			-4.051
13303.000			32.390			-4.049
13405.000			32.385			-4.048
13504.000			32.379			-4.047
13604.000			32.372			-4.047
13705.000			32.366			-4.046
13804.000			32.360			-4.045
13904.000			32.353			-4.044
14004.000			32.342			-4.043
14104.000			32.335			-4.042
14204.000			32.329			-4.041
14304.000			32.323			-4.040
14404.000			32.317			-4.040
14505.000			32.311			-4.039
14604.000			32.306			-4.038
14703.000			32.299			-4.037
14805.000			32.287			-4.036
14904.000			32.281			-4.035
15004.000			32.276			-4.034
15105.000			32.270			-4.034
15204.000			32.264			-4.033
15304.000			32.259			-4.032
15405.000			32.253			-4.032
15504.000			32.243			-4.030
15604.000			32.236			-4.030
15705.000			32.231			-4.029
15804.000			32.226			-4.028
15903.000			32.220			-4.027
16005.000			32.214			-4.027
16104.000			32.209			-4.026
16204.000			32.199			-4.025
16305.000			32.195			-4.024
16404.000			32.190			-4.024
16504.000			32.184			-4.023
16604.000			32.178			-4.022
16704.000			32.173			-4.022
16804.000			32.168			-4.021
16905.000			32.159			-4.020
17004.000			32.153			-4.019
17104.000			32.148			-4.019
17205.000			32.144			-4.018
17303.000			32.140			-4.017
17404.000			32.134			-4.017
17505.000			32.128			-4.016
17604.000			32.123			-4.015
17705.000			32.115			-4.014
17804.000			32.110			-4.014
17904.000			32.105			-4.013
18004.000			32.100			-4.013
18104.000			32.095			-4.012
18204.000			32.091			-4.011
18305.000			32.086			-4.011
18404.000			32.076			-4.009
18503.000			32.071			-4.009
18605.000			32.067			-4.008
18704.000			32.062			-4.008
18804.000			32.058			-4.007
18905.000			32.054			-4.007
19004.000			32.048			-4.006
19104.000			32.041			-4.005
19204.000			32.037			-4.005
19304.000			32.032			-4.004
19404.000			32.027			-4.003
19505.000			32.022			-4.003
19604.000			32.017			-4.002
19704.000			32.014			-4.002
19805.000			32.006			-4.001
19903.000			32.002			-4.000
20004.000			31.997			-4.000
20105.000			31.992			-3.999
20204.000			31.988			-3.998
20304.000			31.983			-3.998
20404.000			31.979			-3.997
20504.000			31.976			-3.997
20603.000			31.968			-3.996
20705.000			31.964			-3.995
20804.000			31.959			-3.995
20905.000			31.955			-3.994
21004.000			31.952			-3.994
21103.000			31.948			-3.994
21205.000			31.944			-3.993
21304.000			31.936			-3.992
21404.000			31.932			-3.992
21505.000			31.928			-3.991
21604.000			31.924			-3.991
21704.000			31.920			-3.990
21804.000			31.916			-3.990
21904.000			31.913			-3.989
22004.000			31.904			-3.988
22105.000			31.901			-3.988
22204.000			31.897			-3.987
22304.000			31.892			-3.987
22405.000			31.889			-3.986
22503.000			31.886			-3.986
22604.000			31.883			-3.985
22705.000			31.874			-3.984
22804.000			31.871			-3.984
22904.000			31.867			-3.983
23005.000			31.863			-3.983
23104.000			31.859			-3.982
23203.000			31.855			-3.982
23305.000			31.852			-3.981
23404.000			31.850			-3.981
23504.000			31.842			-3.980
23605.000			31.839			-3.980
23704.000			31.835			-3.979
23804.000			31.831			-3.979
23903.000			31.828			-3.978
24004.000			31.824			-3.978
24105.000			31.820			-3.978
24204.000			31.813			-3.977
24304.000			31.809			-3.976
24404.000			31.807			-3.976
24504.000			31.803			-3.975
24604.000			31.799			-3.975
24705.000			31.796			-3.975
24804.000			31.793			-3.974
24904.000			31.786			-3.973
25005.000			31.783			-3.973
25103.000			31.779			-3.972
25204.000			31.775			-3.972
25305.000			31.772			-3.971
25404.000			31.768			-3.971
25504.000			31.766			-3.971
25605.000			31.759			-3.970
25704.000			31.755			-3.969
25803.000			31.753			-3.969
25905.000			31.750			-3.969
26004.000			31.746			-3.968
26104.000			31.743			-3.968
26205.000			31.740			-3.968
26304.000			31.737			-3.967
26404.000			31.730			-3.966
26504.000			31.726			-3.966
26604.000			31.723			-3.965
26704.000			31.720			-3.965
26805.000			31.718			-3.965
26904.000			31.715			-3.964
27004.000			31.712			-3.964
27105.000			31.705			-3.963
27203.000			31.701			-3.963
27305.000			31.698			-3.962
27404.000			31.695			-3.962
27504.000			31.693			-3.962
27605.000			31.690			-3.961
27704.000			31.687			-3.961
27804.000			31.681			-3.960
27904.000			31.678			-3.960
28004.000			31.674			-3.959
28104.000			31.671			-3.959
28205.000			31.668			-3.958
28304.000			31.665			-3.958
28404.000			31.662			-3.958
28505.000			31.656			-3.957
28603.000			31.654			-3.957
28704.000			31.651			-3.956
28805.000			31.647			-3.956
28904.000			31.644			-3.956
29004.000			31.642			-3.955
29104.000			31.639			-3.955
29204.000			31.636			-3.955
29304.000			31.631			-3.954
29405.000			31.628			-3.954
29504.000			31.624			-3.953
29604.000			31.622			-3.953
29705.000			31.619			-3.952
29803.000			31.616			-3.952
29904.000			31.612			-3.952
30005.000			31.607			-3.951
30104.000			31.604			-3.951
30204.000			31.601			-3.950
30304.000			31.598			-3.950
30404.000			31.595			-3.949
30503.000			31.592			-3.949
30604.000			31.590			-3.949
30704.000			31.584			-3.948
30805.000			31.582			-3.948
30904.000			31.580			-3.947
31004.000			31.578			-3.947
31105.000			31.575			-3.947
31203.000			31.572			-3.947
31304.000			31.570			-3.946
31405.000			31.563			-3.945
31504.000			31.561			-3.945
31604.000			31.558			-3.945
31704.000			31.557			-3.945
31804.000			31.554			-3.944
31903.000			31.552			-3.944
32005.000			31.549			-3.944
32104.000			31.546			-3.943
32204.000			31.541			-3.943
32305.000			31.538			-3.942
32403.000			31.535			-3.942
32504.000			31.533			-3.942
32605.000			31.531			-3.941
32704.000			31.528			-3.941
32804.000			31.525			-3.941
32905.000			31.521			-3.940
33004.000			31.517			-3.940
33103.000			31.515			-3.939
33205.000			31.513			-3.939
33304.000			31.510			-3.939
33404.000			31.508			-3.938
33505.000			31.505			-3.938
33604.000			31.501			-3.938
33705.000			31.498			-3.937
33803.000			31.495			-3.937
33904.000			31.492			-3.937
34005.000			31.491			-3.936
34104.000			31.489			-3.936
34204.000			31.485			-3.936
34304.000			31.481			-3.935
34404.000			31.478			-3.935
34503.000			31.476			-3.935
34605.000			31.474			-3.934
34704.000			31.470			-3.934
34804.000			31.468			-3.934
34905.000			31.467			-3.933
35003.000			31.464			-3.933
35104.000			31.460			-3.933
35205.000			31.458			-3.932
35304.000			31.456			-3.932
35404.000			31.453			-3.932
35505.000			31.450			-3.931
35604.000			31.447			-3.931
35703.000			31.445			-3.931
35805.000			31.440			-3.930
35904.000			31.438			-3.930
36004.000			31.436			-3.930
36105.000			31.434			-3.929
36204.000			31.432			-3.929
36304.000			31.430			-3.929
36404.000			31.427			-3.928
36504.000			31.422			-3.928
36604.000			31.419			-3.927
36704.000			31.417			-3.927
36804.000			31.414			-3.927
36905.000			31.413			-3.927
37004.000			31.411			-3.926
37103.000			31.409			-3.926
37205.000			31.406			-3.926
37304.000			31.402			-3.925
37404.000			31.399			-3.925
37505.000			31.397			-3.925
37604.000			31.396			-3.925
37704.000			31.395			-3.924
37804.000			31.392			-3.924
37904.000			31.390			-3.924
38004.000			31.385			-3.923
38105.000			31.383			-3.923
38204.000			31.380			-3.923
38303.000			31.377			-3.922
38405.000			31.375			-3.922
38504.000			31.374			-3.922
38604.000			31.372			-3.921
38705.000			31.368			-3.921
38804.000			31.365			-3.921
38904.000			31.362			-3.920
39004.000			31.360			-3.920
39104.000			31.357			-3.920
39204.000			31.356			-3.920
39305.000			31.354			-3.919
39404.000			31.349			-3.919
39504.000			31.347			-3.918
39605.000			31.345			-3.918
39703.000			31.344			-3.918
39804.000			31.342			-3.918
39905.000			31.339			-3.917
40004.000			31.338			-3.917
40105.000			31.333			-3.917
40204.000			31.330			-3.916
40304.000			31.329			-3.916
40404.000			31.328			-3.916
40504.000			31.325			-3.916
40604.000			31.323			-3.915
40705.000			31.321			-3.915
40804.000			31.320			-3.915
40903.000			31.314			-3.914
41005.000			31.312			-3.914
41104.000			31.309			-3.914
41204.000			31.308			-3.913
41305.000			31.305			-3.913
41404.000			31.304			-3.913
41504.000			31.301			-3.913
41604.000			31.298			-3.912
41704.000			31.296			-3.912
41804.000			31.294			-3.912
41905.000			31.292			-3.911
42004.000			31.290			-3.911
42104.000			31.289			-3.911
42205.000			31.286			-3.911
42303.000			31.282			-3.910
42404.000			31.281			-3.910
42505.000			31.279			-3.910
42604.000			31.275			-3.909
42704.000			31.274			-3.909
42804.000			31.274			-3.909
42904.000			31.271			-3.909
43003.000			31.268			-3.909
43105.000			31.265			-3.908
43204.000			31.264			-3.908
43305.000			31.261			-3.908
43404.000			31.260			-3.907
43503.000			31.257			-3.907
43605.000			31.256			-3.907
43704.000			31.255			-3.907
43804.000			31.251			-3.906
43905.000			31.248			-3.906
44004.000			31.245			-3.906
44104.000			31.243			-3.905
44204.000			31.242			-3.905
44304.000			31.240			-3.905
44404.000			31.238			-3.905
44505.000			31.235			-3.904
44604.000			31.233			-3.904
44704.000			31.231			-3.904
44805.000			31.229			-3.904
44903.000			31.228			-3.904
45004.000			31.226			-3.903
45105.000			31.224			-3.903
45204.000			31.222			-3.903
45304.000			31.220			-3.902
45404.000			31.217			-3.902
45504.000			31.215			-3.902
45604.000			31.213			-3.902
45705.000			31.212			-3.901
45804.000			31.211			-3.901
45904.000			31.208			-3.901
46005.000			31.204			-3.900
46103.000			31.202			-3.900
46204.000			31.200			-3.900
46305.000			31.198			-3.900
46404.000			31.196			-3.899
46505.000			31.195			-3.899
46604.000			31.193			-3.899
46704.000			31.189			-3.899
46804.000			31.187			-3.898
46904.000			31.186			-3.898
47004.000			31.186			-3.898
47105.000			31.184			-3.898
47204.000			31.180			-3.898
47304.000			31.178			-3.897
47405.000			31.176			-3.897
47504.000			31.173			-3.897
47604.000			31.171			-3.896
47705.000			31.171			-3.896
47804.000			31.171			-3.896
47904.000			31.168			-3.896
48004.000			31.165			-3.896
48104.000			31.162			-3.895
48204.000			31.161			-3.895
48305.000			31.159			-3.895
48404.000			31.157			-3.895
48504.000			31.154			-3.894
48605.000			31.151			-3.894
48703.000			31.151			-3.894
48804.000			31.150			-3.894
48905.000			31.147			-3.893
49004.000			31.146			-3.893
49104.000			31.143			-3.893
49205.000			31.142			-3.893
49304.000			31.140			-3.892
49403.000			31.138			-3.892
49505.000			31.136			-3.892
49604.000			31.133			-3.892
49705.000			31.131			-3.891
49804.000			31.129			-3.891
49904.000			31.127			-3.891
50005.000			31.125			-3.891
50103.000			31.124			-3.890
50204.000			31.122			-3.890
50305.000			31.119			-3.890
50404.000			31.118			-3.890
50504.000			31.116			-3.890
50604.000			31.114			-3.889
50704.000			31.112			-3.889
50804.000			31.111			-3.889
50905.000			31.110			-3.889
51004.000			31.107			-3.888
51104.000			31.105			-3.888
51205.000			31.104			-3.888
51303.000			31.102			-3.888
51404.000			31.100			-3.888
51505.000			31.099			-3.887
51604.000			31.098			-3.887
51704.000			31.096			-3.887
51804.000			31.093			-3.887
51904.000			31.090			-3.886
52003.000			31.088			-3.886
52105.000			31.088			-3.886
52204.000			31.087			-3.886
52304.000			31.084			-3.886
52405.000			31.083			-3.885
52503.000			31.080			-3.885
52604.000			31.079			-3.885
52705.000			31.077			-3.885
52804.000			31.075			-3.884
52905.000			31.073			-3.884
53004.000			31.072			-3.884
53104.000			31.071			-3.884
53204.000			31.069			-3.884
53304.000			31.067			-3.883
53404.000			31.065			-3.883
53505.000			31.064			-3.883
53604.000			31.062			-3.883
53704.000			31.060			-3.882
53805.000			31.059			-3.882
53903.000			31.058			-3.882
54004.000			31.056			-3.882
54105.000			31.053			-3.882
54204.000			31.052			-3.881
54304.000			31.051			-3.881
54405.000			31.049			-3.881
54504.000			31.048			-3.881
54603.000			31.045			-3.881
54705.000			31.045			-3.881
54804.000			31.043			-3.880
54904.000			31.039			-3.880
55005.000			31.039			-3.880
55104.000			31.039			-3.880
55204.000			31.037			-3.880
55304.000			31.035			-3.879
55404.000			31.032			-3.879
55504.000			31.030			-3.879
55605.000			31.028			-3.879
55704.000			31.027			-3.878
55803.000			31.025			-3.878
55905.000			31.024			-3.878
56004.000			31.023			-3.878
56105.000			31.019			-3.877
56204.000			31.019			-3.877
56304.000			31.018			-3.877
56405.000			31.016			-3.877
56503.000			31.014			-3.877
56604.000			31.012			-3.877
56705.000			31.011			-3.876
56804.000			31.008			-3.876
56904.000			31.006			-3.876
57005.000			31.004			-3.875
57104.000			31.002			-3.875
57203.000			31.001			-3.875
57305.000			31.000			-3.875
57404.000			30.999			-3.875
57504.000			30.996			-3.874
57605.000			30.994			-3.874
57704.000			30.992			-3.874
57804.000			30.990			-3.874
57904.000			30.989			-3.874
58004.000			30.989			-3.874
58104.000			30.988			-3.873
58205.000			30.986			-3.873
58304.000			30.982			-3.873
58404.000			30.982			-3.873
58505.000			30.980			-3.873
58603.000			30.978			-3.872
58704.000			30.977			-3.872
58805.000			30.976			-3.872
58904.000			30.974			-3.872
59004.000			30.970			-3.871
59104.000			30.970			-3.871
59204.000			30.968			-3.871
59303.000			30.967			-3.871
59404.000			30.966			-3.871
59504.000			30.965			-3.871
59605.000			30.963			-3.870
59704.000			30.960			-3.870
59804.000			30.959			-3.870
59905.000			30.958			-3.870
60003.000			30.957			-3.870
60104.000			30.955			-3.869
60205.000			30.954			-3.869
60304.000			30.954			-3.869
60404.000			30.952			-3.869
60505.000			30.951			-3.869
60604.000			30.948			-3.869
60703.000			30.947			-3.868
60805.000			30.945			-3.868
60904.000			30.944			-3.868
61004.000			30.943			-3.868
61105.000			30.941			-3.868
61204.000			30.939			-3.867
61304.000			30.938			-3.867
61404.000			30.937			-3.867
61504.000			30.935			-3.867
61604.000			30.933			-3.867
61705.000			30.932			-3.866
61804.000			30.931			-3.866
61903.000			30.928			-3.866
62005.000			30.926			-3.866
62104.000			30.924			-3.865
62204.000			30.923			-3.865
62305.000			30.922			-3.865
62404.000			30.922			-3.865
62505.000			30.919			-3.865
62603.000			30.916			-3.864
62704.000			30.914			-3.864
62805.000			30.912			-3.864
62904.000			30.911			-3.864
63004.000			30.909			-3.864
63105.000			30.908			-3.864
63204.000			30.907			-3.863
63303.000			30.904			-3.863
63405.000			30.902			-3.863
63504.000			30.901			-3.863
63604.000			30.900			-3.863
63705.000			30.899			-3.862
63804.000			30.896			-3.862
63904.000			30.894			-3.862
64004.000			30.894			-3.862
64104.000			30.892			-3.862
64204.000			30.891			-3.861
64305.000			30.890			-3.861
64404.000			30.888			-3.861
64504.000			30.885			-3.861
64605.000			30.885			-3.861
64703.000			30.885			-3.861
64804.000			30.882			-3.860
64905.000			30.880			-3.860
65004.000			30.879			-3.860
65104.000			30.877			-3.860
65205.000			30.875			-3.859
65304.000			30.874			-3.859
65403.000			30.873			-3.859
65505.000			30.870			-3.859
65604.000			30.870			-3.859
65705.000			30.869			-3.859
65804.000			30.867			-3.858
65904.000			30.866			-3.858
66005.000			30.864			-3.858
66103.000			30.862			-3.858
66204.000			30.860			-3.858
66305.000			30.858			-3.857
66404.000			30.858			-3.857
66504.000			30.856			-3.857
66605.000			30.855			-3.857
66704.000			30.854			-3.857
66803.000			30.853			-3.857
66905.000			30.852			-3.857
67004.000			30.849			-3.856
67104.000			30.848			-3.856
67205.000			30.847			-3.856
67304.000			30.846			-3.856
67404.000			30.844			-3.856
67504.000			30.843			-3.855
67604.000			30.841			-3.855
67704.000			30.838			-3.855
67805.000			30.837			-3.855
67904.000			30.835			-3.854
68004.000			30.835			-3.854
68105.000			30.834			-3.854
68203.000			30.832			-3.854
68304.000			30.831			-3.854
68405.000			30.829			-3.854
68504.000			30.826			-3.853
68604.000			30.825			-3.853
68704.000			30.825			-3.853
68804.000			30.824			-3.853
68903.000			30.824			-3.853
69004.000			30.821			-3.853
69104.000			30.818			-3.852
69205.000			30.816			-3.852
69304.000			30.816			-3.852
69404.000			30.815			-3.852
69505.000			30.814			-3.852
69603.000			30.813			-3.852
69704.000			30.812			-3.852
69805.000			30.811			-3.851
69904.000			30.809			-3.851
70004.000			30.807			-3.851
70105.000			30.806			-3.851
70204.000			30.806			-3.851
70303.000			30.804			-3.851
70405.000			30.804			-3.850
70504.000			30.802			-3.850
70604.000			30.798			-3.850
70705.000			30.797			-3.850
70804.000			30.796			-3.849
70904.000			30.795			-3.849
71004.000			30.794			-3.849
71104.000			30.793			-3.849
71204.000			30.792			-3.849
71305.000			30.789			-3.849
71404.000			30.788			-3.849
71504.000			30.787			-3.848
71605.000			30.786			-3.848
71703.000			30.785			-3.848
71804.000			30.783			-3.848
71905.000			30.783			-3.848
72004.000			30.780			-3.848
72105.000			30.779			-3.847
72204.000			30.777			-3.847
72304.000			30.776			-3.847
72404.000			30.774			-3.847
72504.000			30.773			-3.847
72604.000			30.774			-3.847
72705.000			30.772			-3.846
72804.000			30.770			-3.846
72904.000			30.770			-3.846
73005.000			30.768			-3.846
73103.000			30.767			-3.846
73204.000			30.766			-3.846
73305.000			30.763			-3.845
73404.000			30.763			-3.845
73504.000			30.761			-3.845
73604.000			30.759			-3.845
73704.000			30.758			-3.845
73803.000			30.757			-3.845
73905.000			30.756			-3.845
74004.000			30.755			-3.844
74104.000			30.753			-3.844
74205.000			30.752			-3.844
74304.000			30.750			-3.844
74404.000			30.749			-3.844
74504.000			30.748			-3.844
74604.000			30.748			-3.844
74704.000			30.747			-3.843
74805.000			30.746			-3.843
74904.000			30.743			-3.843
75004.000			30.743			-3.843
75105.000			30.741			-3.843
75204.000			30.740			-3.842
75305.000			30.739			-3.842
75404.000			30.737			-3.842
75504.000			30.736			-3.842
75605.000			30.735			-3.842
75704.000			30.733			-3.842
75804.000			30.732			-3.841
75904.000			30.731			-3.841
76004.000			30.730			-3.841
76104.000			30.729			-3.841
76205.000			30.727			-3.841
76304.000			30.726			-3.841
76404.000			30.726			-3.841
76505.000			30.724			-3.840
76603.000			30.722			-3.840
76704.000			30.720			-3.840
76805.000			30.721			-3.840
76904.000			30.720			-3.840
77004.000			30.718			-3.840
77105.000			30.717			-3.840
77204.000			30.716			-3.840
77303.000			30.715			-3.839
77405.000			30.713			-3.839
77504.000			30.712			-3.839
77604.000			30.712			-3.839
77705.000			30.711			-3.839
77803.000			30.708			-3.839
77904.000			30.707			-3.838
78005.000			30.706			-3.838
78104.000			30.704			-3.838
78204.000			30.704			-3.838
78304.000			30.702			-3.838
78404.000			30.700			-3.837
78503.000			30.699			-3.837
78604.000			30.698			-3.837
78703.000			30.697			-3.837
78805.000			30.696			-3.837
78904.000			30.695			-3.837
79004.000			30.694			-3.837
79105.000			30.693			-3.837
79204.000			30.692			-3.836
79304.000			30.690			-3.836
79404.000			30.689			-3.836
79504.000			30.688			-3.836
79604.000			30.687			-3.836
79705.000			30.686			-3.836
79804.000			30.684			-3.836
79904.000			30.683			-3.835
80005.000			30.683			-3.835
80103.000			30.680			-3.835
80204.000			30.678			-3.835
80305.000			30.678			-3.835
80404.000			30.677			-3.835
80504.000			30.676			-3.834
80605.000			30.676			-3.834
80704.000			30.675			-3.834
80803.000			30.672			-3.834
80905.000			30.671			-3.834
81004.000			30.670			-3.834
81104.000			30.669			-3.834
81205.000			30.668			-3.834
81304.000			30.668			-3.833
81404.000			30.667			-3.833
81503.000			30.664			-3.833
81604.000			30.663			-3.833
81705.000			30.663			-3.833
81804.000			30.662			-3.833
81904.000			30.661			-3.833
82005.000			30.660			-3.832
82104.000			30.659			-3.832
82203.000			30.656			-3.832
82305.000			30.656			-3.832
82404.000			30.654			-3.832
82504.000			30.653			-3.832
82605.000			30.652			-3.831
82704.000			30.651			-3.831
82804.000			30.650			-3.831
82904.000			30.648			-3.831
83004.000			30.647			-3.831
83104.000			30.648			-3.831
83205.000			30.646			-3.831
83304.000			30.643			-3.830
83404.000			30.642			-3.830
83505.000			30.642			-3.830
83603.000			30.642			-3.830
83704.000			30.638			-3.830
83805.000			30.639			-3.830
83904.000			30.638			-3.830
84004.000			30.637			-3.830
84105.000			30.635			-3.829
84204.000			30.634			-3.829
84303.000			30.634			-3.829
84405.000			30.631			-3.829
84504.000			30.631			-3.829
84604.000			30.631			-3.829
84705.000			30.629			-3.829
84804.000			30.628			-3.829
84905.000			30.627			-3.828
85003.000			30.626			-3.828
85104.000			30.625			-3.828
85205.000			30.624			-3.828
85304.000			30.623			-3.828
85404.000			30.622			-3.828
85505.000			30.621			-3.828
85604.000			30.619			-3.827
85703.000			30.619			-3.827
85805.000			30.618			-3.827
85904.000			30.615			-3.827
86004.000			30.614			-3.827
86105.000			30.614			-3.827
86204.000			30.613			-3.827
86304.000			30.612			-3.827
86404.000			30.610			-3.826
86504.000			30.609			-3.826
86604.000			30.608			-3.826
86705.000			30.608			-3.826
86804.000			30.606			-3.826
86904.000			30.604			-3.825
87005.000			30.603			-3.825
87103.000			30.603			-3.825
87204.000			30.602			-3.825
87305.000			30.600			-3.825
87404.000			30.599			-3.825
87504.000			30.599			-3.825
87605.000			30.598			-3.825
87704.000			30.597			-3.825
87803.000			30.596			-3.824
87905.000			30.595			-3.824
88004.000			30.593			-3.824
88105.000			30.593			-3.824
88204.000			30.591			-3.824
88304.000			30.590			-3.824
88405.000			30.589			-3.824
88503.000			30.588			-3.823
88604.000			30.588			-3.823
88705.000			30.586			-3.823
88804.000			30.584			-3.823
88904.000			30.584			-3.823
89005.000			30.583			-3.823
89104.000			30.582			-3.823
89203.000			30.580			-3.823
89305.000			30.581			-3.823
89404.000			30.580			-3.822
89504.000			30.576			-3.822
89605.000			30.575			-3.822
89704.000			30.576			-3.822
89804.000			30.576			-3.822
89904.000			30.574			-3.822
90004.000			30.573			-3.822
90104.000			30.572			-3.822
90205.000			30.570			-3.821
90304.000			30.570			-3.821
90404.000			30.568			-3.821
90505.000			30.566			-3.821
90603.000			30.565			-3.821
90704.000			30.565			-3.821
90805.000			30.565			-3.821
90904.000			30.562			-3.820
91004.000			30.562			-3.820
91104.000			30.560			-3.820
91204.000			30.559			-3.820
91303.000			30.558			-3.820
91404.000			30.558			-3.820
91504.000			30.558			-3.820
91605.000			30.555			-3.819
91704.000			30.555			-3.819
91804.000			30.554			-3.819
91905.000			30.552			-3.819
92003.000			30.551			-3.819
92104.000			30.551			-3.819
92205.000			30.550			-3.819
92304.000			30.549			-3.819
92404.000			30.548			-3.818
92505.000			30.547			-3.818
92604.000			30.545			-3.818
92703.000			30.545			-3.818
92805.000			30.544			-3.818
92904.000			30.544			-3.818
93004.000			30.543			-3.818
93105.000			30.540			-3.818
93204.000			30.539			-3.817
93304.000			30.538			-3.817
93404.000			30.538			-3.817
93504.000			30.538			-3.817
93604.000			30.536			-3.817
93705.000			30.535			-3.817
93804.000			30.534			-3.817
93904.000			30.532			-3.817
94005.000			30.530			-3.816
94103.000			30.530			-3.816
94204.000			30.530			-3.816
94305.000			30.529			-3.816
94404.000			30.528			-3.816
94505.000			30.525			-3.816
94604.000			30.525			-3.816
94704.000			30.525			-3.816
94804.000			30.524			-3.815
94904.000			30.523			-3.815
95004.000			30.523			-3.815
95105.000			30.522			-3.815
95204.000			30.520			-3.815
95304.000			30.518			-3.815
95405.000			30.519			-3.815
95503.000			30.518			-3.815
95604.000			30.516			-3.814
95705.000			30.514			-3.814
95804.000			30.514			-3.814
95904.000			30.513			-3.814
96005.000			30.511			-3.814
96104.000			30.511			-3.814
96203.000			30.509			-3.814
96305.000			30.508			-3.814
96404.000			30.508			-3.813
96504.000			30.507			-3.813
96605.000			30.507			-3.813
96704.000			30.505			-3.813
96804.000			30.505			-3.813
96904.000			30.503			-3.813
97004.000			30.501			-3.813
97104.000			30.500			-3.813
97205.000			30.501			-3.813
97304.000			30.500			-3.813
97403.000			30.497			-3.812
97505.000			30.497			-3.812
97604.000			30.496			-3.812
97705.000			30.496			-3.812
97804.000			30.494			-3.812
97904.000			30.494			-3.812
98005.000			30.492			-3.812
98104.000			30.492			-3.811
98204.000			30.489			-3.811
98304.000			30.489			-3.811
98404.000			30.489			-3.811
98504.000			30.486			-3.811
98605.000			30.486			-3.811
98704.000			30.486			-3.811
98804.000			30.486			-3.811
98905.000			30.484			-3.811
99003.000			30.483			-3.810
99104.000			30.482			-3.810
99205.000			30.481			-3.810
99304.000			30.480			-3.810
99404.000			30.479			-3.810
99505.000			30.477			-3.810
99604.000			30.477			-3.810
99703.000			30.477			-3.810
99805.000			30.475			-3.809
99904.000			30.474			-3.809
100004.000			30.474			-3.809
100105.000			30.473			-3.809
100204.000			30.471			-3.809
100304.000			30.469			-3.809
100404.000			30.469			-3.809
100504.000			30.469			-3.809
100604.000			30.468			-3.809
100704.000			30.467			-3.808
100804.000			30.466			-3.808
100905.000			30.465			-3.808
101004.000			30.464			-3.808
101103.000			30.463			-3.808
101205.000			30.461			-3.808
101304.000			30.460			-3.808
101404.000			30.460			-3.808
101505.000			30.460			-3.807
101604.000			30.458			-3.807
101704.000			30.458			-3.807
101804.000			30.457			-3.807
101904.000			30.456			-3.807
102004.000			30.455			-3.807
102105.000			30.455			-3.807
102204.000			30.453			-3.807
102304.000			30.453			-3.807
102405.000			30.451			-3.806
102503.000			30.450			-3.806
102604.000			30.448			-3.806
102705.000			30.447			-3.806
102804.000			30.446			-3.806
102904.000			30.445			-3.806
103004.000			30.445			-3.806
103104.000			30.445			-3.806
103203.000			30.444			-3.805
103305.000			30.442			-3.805
103404.000			30.441			-3.805
103504.000			30.440			-3.805
103605.000			30.440			-3.805
103703.000			30.439			-3.805
103804.000			30.439			-3.805
103905.000			30.438			-3.805
104004.000			30.437			-3.805
104105.000			30.435			-3.804
104204.000			30.434			-3.804
104304.000			30.433			-3.804
104404.000			30.433			-3.804
104504.000			30.432			-3.804
104604.000			30.432			-3.804
104705.000			30.431			-3.804
104804.000			30.430			-3.804
104904.000			30.429			-3.804
105005.000			30.428			-3.803
105103.000			30.427			-3.803
105204.000			30.425			-3.803
105305.000			30.424			-3.803
105404.000			30.423			-3.803
105504.000			30.423			-3.803
105605.000			30.422			-3.803
105704.000			30.422			-3.803
105803.000			30.420			-3.802
105905.000			30.420			-3.802
106004.000			30.420			-3.802
106104.000			30.418			-3.802
106205.000			30.417			-3.802
106304.000			30.416			-3.802
106404.000			30.415			-3.802
106504.000			30.414			-3.802
106604.000			30.413			-3.802
106704.000			30.413			-3.802
106805.000			30.412			-3.802
106904.000			30.411			-3.801
107004.000			30.411			-3.801
107105.000			30.410			-3.801
107203.000			30.408			-3.801
107305.000			30.408			-3.801
107404.000			30.408			-3.801
107504.000			30.407			-3.801
107605.000			30.405			-3.801
107704.000			30.404			-3.800
107804.000			30.403			-3.800
107904.000			30.402			-3.800
108004.000			30.401			-3.800
108104.000			30.401			-3.800
108205.000			30.400			-3.800
108304.000			30.398			-3.800
108404.000			30.397			-3.800
108505.000			30.396			-3.799
108603.000			30.395			-3.799
108704.000			30.394			-3.799
108805.000			30.394			-3.799
108904.000			30.394			-3.799
109004.000			30.392			-3.799
109105.000			30.392			-3.799
109204.000			30.391			-3.799
109304.000			30.390			-3.799
109405.000			30.389			-3.799
109503.000			30.388			-3.798
109604.000			30.387			-3.798
109705.000			30.387			-3.798
109804.000			30.387			-3.798
109904.000			30.385			-3.798
110005.000			30.384			-3.798
110104.000			30.383			-3.798
110203.000			30.382			-3.798
110305.000			30.381			-3.798
110404.000			30.380			-3.798
110505.000			30.380			-3.797
110604.000			30.379			-3.797
110704.000			30.380			-3.797
110805.000			30.378			-3.797
110903.000			30.377			-3.797
111004.000			30.375			-3.797
111105.000			30.375			-3.797
111204.000			30.374			-3.797
111304.000			30.373			-3.797
111405.000			30.373			-3.797
111504.000			30.372			-3.796
111603.000			30.370			-3.796
111705.000			30.370			-3.796
111804.000			30.369			-3.796
111904.000			30.368			-3.796
112005.000			30.367			-3.796
112104.000			30.365			-3.796
112204.000			30.365			-3.796
112304.000			30.365			-3.796
112404.000			30.364			-3.795
112504.000			30.363			-3.795
112605.000			30.362			-3.795
112704.000			30.360			-3.795
112804.000			30.359			-3.795
112905.000			30.359			-3.795
113003.000			30.359			-3.795
113104.000			30.358			-3.795
113205.000			30.358			-3.795
113304.000			30.356			-3.795
113404.000			30.355			-3.794
113504.000			30.354			-3.794
113604.000			30.353			-3.794
113703.000			30.353			-3.794
113804.000			30.352			-3.794
113904.000			30.351			-3.794
114005.000			30.350			-3.794
114104.000			30.350			-3.794
114204.000			30.349			-3.794
114305.000			30.348			-3.793
114403.000			30.348			-3.794
114504.000			30.347			-3.793
114605.000			30.346			-3.793
114704.000			30.346			-3.793
114804.000			30.344			-3.793
114905.000			30.344			-3.793
115004.000			30.343			-3.793
115103.000			30.342			-3.793
115205.000			30.340			-3.792
115304.000			30.339			-3.792
115404.000			30.339			-3.792
115505.000			30.339			-3.792
115604.000			30.337			-3.792
115704.000			30.336			-3.792
115805.000			30.335			-3.792
115904.000			30.335			-3.792
116003.000			30.335			-3.792
116105.000			30.333			-3.792
116204.000			30.332			-3.791
116304.000			30.331			-3.791
116405.000			30.330			-3.791
116504.000			30.330			-3.791
116604.000			30.329			-3.791
116703.000			30.329			-3.791
116804.000			30.329			-3.791
116905.000			30.328			-3.791
117004.000			30.326			-3.791
117104.000			30.325			-3.791
117205.000			30.324			-3.791
117304.000			30.323			-3.790
117403.000			30.322			-3.790
117505.000			30.323			-3.790
117604.000			30.322			-3.790
117704.000			30.320			-3.790
117805.000			30.320			-3.790
117904.000			30.319			-3.790
118004.000			30.318			-3.790
118104.000			30.319			-3.790
118204.000			30.318			-3.790
118304.000			30.317			-3.790
118405.000			30.316			-3.789
118504.000			30.314			-3.789
118604.000			30.314			-3.789
118705.000			30.313			-3.789
118803.000			30.310			-3.789
118904.000			30.310			-3.789
119005.000			30.310			-3.789
119104.000			30.310			-3.789
119204.000			30.309			-3.789
119305.000			30.309			-3.789
119404.000			30.308			-3.788
119503.000			30.306			-3.788
119605.000			30.306			-3.788
119704.000			30.305			-3.788
119804.000			30.304			-3.788
119905.000			30.302			-3.788
120004.000			30.302			-3.788
120105.000			30.301			-3.788
120203.000			30.301			-3.788
120304.000			30.300			-3.787
120405.000			30.299			-3.787
120504.000			30.297			-3.787
120604.000			30.296			-3.787
120705.000			30.296			-3.787
120804.000			30.296			-3.787
120903.000			30.296			-3.787
121005.000			30.295			-3.787
121104.000			30.294			-3.787
121204.000			30.293			-3.787
121305.000			30.292			-3.787
121404.000			30.291			-3.786
121504.000			30.291			-3.786
121604.000			30.290			-3.786
121704.000			30.288			-3.786
121804.000			30.288			-3.786
121905.000			30.287			-3.786
122004.000			30.287			-3.786
122104.000			30.285			-3.786
122205.000			30.285			-3.786
122303.000			30.284			-3.786
122404.000			30.283			-3.785
122505.000			30.283			-3.785
122604.000			30.283			-3.785
122704.000			30.282			-3.785
122805.000			30.282			-3.785
122904.000			30.280			-3.785
123003.000			30.279			-3.785
123105.000			30.279			-3.785
123204.000			30.279			-3.785
123305.000			30.277			-3.785
123404.000			30.276			-3.785
123504.000			30.275			-3.784
123605.000			30.275			-3.784
123703.000			30.275			-3.784
123804.000			30.273			-3.784
123905.000			30.273			-3.784
124004.000			30.271			-3.784
124104.000			30.269			-3.784
124205.000			30.270			-3.784
124304.000			30.270			-3.784
124403.000			30.269			-3.784
124505.000			30.268			-3.783
124604.000			30.267			-3.783
124704.000			30.266			-3.783
124805.000			30.265			-3.783
124904.000			30.265			-3.783
125004.000			30.265			-3.783
125104.000			30.264			-3.783
125204.000			30.263			-3.783
125304.000			30.261			-3.783
125405.000			30.262			-3.783
125504.000			30.262			-3.783
125604.000			30.260			-3.782
125705.000			30.257			-3.782
125803.000			30.257			-3.782
125904.000			30.258			-3.782
126005.000			30.257			-3.782
126104.000			30.255			-3.782
126204.000			30.255			-3.782
126304.000			30.255			-3.782
126404.000			30.253			-3.782
126503.000			30.252			-3.781
126604.000			30.251			-3.781
126704.000			30.250			-3.781
126805.000			30.251			-3.781
126904.000			30.250			-3.781
127004.000			30.249			-3.781
127105.000			30.248			-3.781
127203.000			30.248			-3.781
127304.000			30.246			-3.781
127405.000			30.245			-3.781
127504.000			30.245			-3.781
127604.000			30.245			-3.781
127705.000			30.245			-3.781
127804.000			30.243			-3.780
127903.000			30.244			-3.780
128005.000			30.242			-3.780
128104.000			30.241			-3.780
128204.000			30.240			-3.780
128305.000			30.240			-3.780
128404.000			30.239			-3.780
128504.000			30.238			-3.780
128604.000			30.237			-3.780
128704.000			30.236			-3.780
128804.000			30.237			-3.780
128905.000			30.236			-3.779
129004.000			30.235			-3.779
129104.000			30.233			-3.779
129205.000			30.233			-3.779
129303.000			30.232			-3.779
129404.000			30.232			-3.779
129505.000			30.232			-3.779
129604.000			30.231			-3.779
129705.000			30.230			-3.779
129804.000			30.229			-3.779
129904.000			30.229			-3.779
130004.000			30.229			-3.779
130104.000			30.227			-3.778
130204.000			30.227			-3.778
130305.000			30.226			-3.778
130404.000			30.225			-3.778
130504.000			30.224			-3.778
130605.000			30.224			-3.778
130703.000			30.223			-3.778
130804.000			30.222			-3.778
130905.000			30.221			-3.778
131004.000			30.220			-3.778
131104.000			30.220			-3.777
131205.000			30.219			-3.777
131304.000			30.218			-3.777
131403.000			30.217			-3.777
131505.000			30.217			-3.777
131604.000			30.216			-3.777
131704.000			30.215			-3.777
131805.000			30.215			-3.777
131904.000			30.214			-3.777
132004.000			30.213			-3.777
132104.000			30.213			-3.777
132204.000			30.212			-3.777
132303.000			30.210			-3.776
132405.000			30.210			-3.776
132504.000			30.210			-3.776
132604.000			30.209			-3.776
132705.000			30.208			-3.776
132804.000			30.208			-3.776
132905.000			30.206			-3.776
133003.000			30.206			-3.776
133104.000			30.207			-3.776
133205.000			30.206			-3.776
133304.000			30.204			-3.775
133404.000			30.202			-3.775
133505.000			30.204			-3.775
133604.000			30.203			-3.775
133703.000			30.200			-3.775
133805.000			30.199			-3.775
133904.000			30.199			-3.775
134004.000			30.200			-3.775
134105.000			30.199			-3.775
134204.000			30.198			-3.775
134304.000			30.197			-3.775
134405.000			30.196			-3.775
134504.000			30.195			-3.774
134603.000			30.196			-3.775
134705.000			30.195			-3.774
134804.000			30.194			-3.774
134904.000			30.193			-3.774
135005.000			30.192			-3.774
135104.000			30.191			-3.774
135204.000			30.190			-3.774
135304.000			30.191			-3.774
135404.000			30.189			-3.774
135503.000			30.188			-3.773
135605.000			30.188			-3.774
135704.000			30.188			-3.773
135804.000			30.187			-3.773
135905.000			30.186			-3.773
136004.000			30.186			-3.773
136105.000			30.186			-3.773
136204.000			30.185			-3.773
136304.000			30.184			-3.773
136404.000			30.182			-3.773
136504.000			30.182			-3.773
136604.000			30.180			-3.773
136705.000			30.181			-3.773
136804.000			30.180			-3.772
136904.000			30.180			-3.773
137005.000			30.181			-3.773
137103.000			30.179			-3.772
137204.000			30.178			-3.772
137304.000			30.177			-3.772
137404.000			30.176			-3.772
137504.000			30.175			-3.772
137605.000			30.175			-3.772
137704.000			30.176			-3.772
137804.000			30.175			-3.772
137905.000			30.174			-3.772
138003.000			30.173			-3.772
138104.000			30.173			-3.772
138205.000			30.172			-3.772
138304.000			30.171			-3.771
138404.000			30.170			-3.771
138505.000			30.169			-3.771
138604.000			30.170			-3.771
138704.000			30.169			-3.771
138805.000			30.168			-3.771
138903.000			30.167			-3.771
139004.000			30.168			-3.771
139105.000			30.167			-3.771
139204.000			30.167			-3.771
139305.000			30.166			-3.771
139404.000			30.165			-3.771
139504.000			30.164			-3.771
139605.000			30.163			-3.770
139704.000			30.163			-3.770
139803.000			30.163			-3.770
139905.000			30.162			-3.770
140004.000			30.162			-3.770
140104.000			30.160			-3.770
140205.000			30.161			-3.770
140304.000			30.161			-3.770
140404.000			30.160			-3.770
140504.000			30.159			-3.770
140604.000			30.157			-3.770
140704.000			30.157			-3.770
140805.000			30.157			-3.770
140904.000			30.156			-3.769
141004.000			30.155			-3.769
141105.000			30.154			-3.769
141204.000			30.153			-3.769
141304.000			30.152			-3.769
141404.000			30.153			-3.769
141504.000			30.152			-3.769
141604.000			30.150			-3.769
141705.000			30.149			-3.769
141804.000			30.149			-3.769
141904.000			30.148			-3.768
142005.000			30.146			-3.768
142103.000			30.145			-3.768
142204.000			30.146			-3.768
142305.000			30.145			-3.768
142404.000			30.145			-3.768
142505.000			30.143			-3.768
142604.000			30.144			-3.768
142704.000			30.143			-3.768
142805.000			30.143			-3.768
142904.000			30.142			-3.768
143003.000			30.140			-3.768
143105.000			30.139			-3.767
143204.000			30.139			-3.767
143304.000			30.138			-3.767
143405.000			30.137			-3.767
143504.000			30.137			-3.767
143604.000			30.136			-3.767
143704.000			30.136			-3.767
143804.000			30.136			-3.767
143904.000			30.133			-3.767
144005.000			30.133			-3.767
144104.000			30.134			-3.767
144204.000			30.133			-3.767
144305.000			30.132			-3.767
144404.000			30.132			-3.766
144504.000			30.130			-3.766
144604.000			30.130			-3.766
144704.000			30.129			-3.766
144804.000			30.128			-3.766
144905.000			30.128			-3.766
145004.000			30.127			-3.766
145104.000			30.127			-3.766
145205.000			30.125			-3.766
145303.000			30.124			-3.766
145404.000			30.125			-3.766
145505.000			30.123			-3.765
145604.000			30.122			-3.765
145705.000			30.122			-3.765
145804.000			30.121			-3.765
145904.000			30.122			-3.765
146005.000			30.120			-3.765
146104.000			30.119			-3.765
146203.000			30.119			-3.765
146305.000			30.119			-3.765
146404.000			30.119			-3.765
146504.000			30.118			-3.765
146605.000			30.117			-3.765
146704.000			30.117			-3.765
146804.000			30.116			-3.764
146904.000			30.115			-3.764
147004.000			30.115			-3.764
147104.000			30.114			-3.764
147205.000			30.113			-3.764
147304.000			30.113			-3.764
147404.000			30.112			-3.764
147505.000			30.111			-3.764
147604.000			30.110			-3.764
147704.000			30.110			-3.764
147804.000			30.111			-3.764
147904.000			30.110			-3.764
148004.000			30.108			-3.763
148105.000			30.108			-3.763
148204.000			30.107			-3.763
148304.000			30.106			-3.763
148405.000			30.106			-3.763
148503.000			30.106			-3.763
148604.000			30.105			-3.763
148705.000			30.104			-3.763
148804.000			30.103			-3.763
148905.000			30.102			-3.763
149004.000			30.101			-3.763
149104.000			30.101			-3.763
149205.000			30.101			-3.763
149304.000			30.101			-3.763
149403.000			30.099			-3.762
149505.000			30.098			-3.762
149604.000			30.099			-3.762
149704.000			30.097			-3.762
149805.000			30.097			-3.762
149904.000			30.098			-3.762
150004.000			30.098			-3.762
150105.000			30.096			-3.762
150204.000			30.095			-3.762
150303.000			30.096			-3.762
150405.000			30.095			-3.762
150504.000			30.095			-3.762
150604.000			30.093			-3.762
150705.000			30.093			-3.762
150804.000			30.094			-3.762
150904.000			30.094			-3.762
151004.000			30.092			-3.762
151104.000			30.092			-3.762
151204.000			30.092			-3.761
151305.000			30.091			-3.761
151404.000			30.090			-3.761
151504.000			30.089			-3.761
151605.000			30.089			-3.761
151704.000			30.089			-3.761
151804.000			30.087			-3.761
151903.000			30.087			-3.761
152004.000			30.086			-3.761
152105.000			30.085			-3.761
152204.000			30.085			-3.761
152304.000			30.084			-3.761
152405.000			30.084			-3.760
152504.000			30.084			-3.760
152603.000			30.083			-3.760
152705.000			30.082			-3.760
152803.000			30.080			-3.760
152904.000			30.080			-3.760
153005.000			30.080			-3.760
153104.000			30.079			-3.760
153204.000			30.079			-3.760
153305.000			30.078			-3.760
153404.000			30.077			-3.760
153503.000			30.077			-3.760
153605.000			30.077			-3.760
153704.000			30.076			-3.760
153804.000			30.076			-3.759
153905.000			30.076			-3.759
154004.000			30.075			-3.759
154104.000			30.075			-3.759
154205.000			30.074			-3.759
154304.000			30.072			-3.759
154403.000			30.072			-3.759
154505.000			30.072			-3.759
154604.000			30.072			-3.759
154704.000			30.070			-3.759
154805.000			30.070			-3.759
154904.000			30.070			-3.759
155004.000			30.070			-3.759
155103.000			30.069			-3.759
155204.000			30.068			-3.758
155303.000			30.067			-3.758
155404.000			30.066			-3.758
155504.000			30.067			-3.758
155605.000			30.066			-3.758
155704.000			30.065			-3.758
155804.000			30.064			-3.758
155905.000			30.063			-3.758
156003.000			30.063			-3.758
156104.000			30.062			-3.758
156205.000			30.061			-3.758
156304.000			30.060			-3.758
156404.000			30.060			-3.757
156505.000			30.059			-3.757
156604.000			30.058			-3.757
156704.000			30.057			-3.757
156805.000			30.057			-3.757
156903.000			30.056			-3.757
157004.000			30.056			-3.757
157105.000			30.054			-3.757
157204.000			30.053			-3.757
157304.000			30.052			-3.757
157405.000			30.051			-3.756
157504.000			30.051			-3.756
157604.000			30.051			-3.756
157705.000			30.049			-3.756
157803.000			30.048			-3.756
157904.000			30.048			-3.756
158005.000			30.047			-3.756
158104.000			30.047			-3.756
158204.000			30.047			-3.756
158304.000			30.046			-3.756
158404.000			30.044			-3.755
158503.000			30.043			-3.755
158604.000			30.043			-3.755
158703.000			30.043			-3.755
158805.000			30.042			-3.755
158904.000			30.041			-3.755
159004.000			30.040			-3.755
159105.000			30.039			-3.755
159204.000			30.038			-3.755
159304.000			30.037			-3.755
159404.000			30.038			-3.755
159504.000			30.037			-3.755
159604.000			30.036			-3.755
159705.000			30.035			-3.754
159804.000			30.036			-3.754
159904.000			30.036			-3.754
160005.000			30.034			-3.754
160104.000			30.033			-3.754
160204.000			30.033			-3.754
160304.000			30.032			-3.754
160404.000			30.032			-3.754
160504.000			30.031			-3.754
160605.000			30.031			-3.754
160704.000			30.030			-3.754
160804.000			30.029			-3.754
160905.000			30.029			-3.754
161003.000			30.028			-3.754
161104.000			30.027			-3.753
161205.000			30.027			-3.753
161304.000			30.027			-3.753
161404.000			30.027			-3.753
161504.000			30.026			-3.753
161604.000			30.025			-3.753
161705.000			30.025			-3.753
161804.000			30.024			-3.753
161903.000			30.023			-3.753
162005.000			30.024			-3.753
162104.000			30.023			-3.753
162204.000			30.022			-3.753
162305.000			30.022			-3.753
162404.000			30.021			-3.753
162504.000			30.021			-3.753
162604.000			30.019			-3.752
162704.000			30.019			-3.752
162804.000			30.018			-3.752
162905.000			30.018			-3.752
163004.000			30.017			-3.752
163104.000			30.017			-3.752
163205.000			30.016			-3.752
163304.000			30.016			-3.752
163404.000			30.016			-3.752
163504.000			30.014			-3.752
163604.000			30.014			-3.752
163704.000			30.014			-3.752
163805.000			30.014			-3.752
163904.000			30.013			-3.752
164004.000			30.012			-3.752
164105.000			30.011			-3.751
164203.000			30.010			-3.751
164304.000			30.010			-3.751
164405.000			30.009			-3.751
164504.000			30.008			-3.751
164604.000			30.008			-3.751
164704.000			30.008			-3.751
164804.000			30.007			-3.751
164903.000			30.005			-3.751
165004.000			30.004			-3.751
165103.000			30.005			-3.751
165205.000			30.005			-3.751
165304.000			30.004			-3.751
165404.000			30.003			-3.750
165505.000			30.003			-3.750
165604.000			30.000			-3.750
165704.000			30.001			-3.750
165804.000			30.001			-3.750
165904.000			30.000			-3.750
166004.000			29.999			-3.750
166105.000			29.999			-3.750
166204.000			29.999			-3.750
166304.000			29.999			-3.750
166405.000			29.996			-3.750
166504.000			29.996			-3.750
166604.000			29.996			-3.750
166704.000			29.995			-3.749
166804.000			29.995			-3.749
166903.000			29.995			-3.749
167005.000			29.995			-3.749
167104.000			29.994			-3.749
167204.000			29.993			-3.749
167305.000			29.992			-3.749
167404.000			29.991			-3.749
167504.000			29.989			-3.749
167605.000			29.991			-3.749
167704.000			29.991			-3.749
167803.000			29.990			-3.749
167905.000			29.989			-3.749
168003.000			29.988			-3.748
168105.000			29.987			-3.748
168204.000			29.987			-3.748
168304.000			29.986			-3.748
168405.000			29.986			-3.748
168504.000			29.985			-3.748
168604.000			29.984			-3.748
168705.000			29.983			-3.748
168804.000			29.983			-3.748
168903.000			29.983			-3.748
169005.000			29.983			-3.748
169103.000			29.983			-3.748
169204.000			29.981			-3.748
169305.000			29.981			-3.748
169404.000			29.980			-3.748
169504.000			29.979			-3.747
169605.000			29.979			-3.747
169704.000			29.980			-3.748
169804.000			29.980			-3.747
169905.000			29.979			-3.747
170003.000			29.978			-3.747
170104.000			29.977			-3.747
170204.000			29.977			-3.747
170304.000			29.977			-3.747
170404.000			29.976			-3.747
170505.000			29.975			-3.747
170604.000			29.974			-3.747
170704.000			29.972			-3.746
170805.000			29.973			-3.747
170904.000			29.972			-3.747
171004.000			29.971			-3.746
171103.000			29.971			-3.746
171204.000			29.970			-3.746
171305.000			29.969			-3.746
171404.000			29.969			-3.746
171504.000			29.968			-3.746
171605.000			29.967			-3.746
171704.000			29.967			-3.746
171804.000			29.966			-3.746
171905.000			29.966			-3.746
172003.000			29.966			-3.746
172104.000			29.965			-3.746
172204.000			29.965			-3.746
172304.000			29.964			-3.746
172404.000			29.963			-3.745
172505.000			29.964			-3.745
172604.000			29.963			-3.745
172704.000			29.962			-3.745
172805.000			29.962			-3.745
172904.000			29.961			-3.745
173004.000			29.960			-3.745
173104.000			29.959			-3.745
173204.000			29.959			-3.745
173304.000			29.959			-3.745
173405.000			29.958			-3.745
173504.000			29.958			-3.745
173604.000			29.957			-3.745
173705.000			29.956			-3.745
173804.000			29.956			-3.745
173904.000			29.957			-3.745
174004.000			29.957			-3.745
174104.000			29.954			-3.744
174203.000			29.954			-3.744
174305.000			29.954			-3.744
174404.000			29.954			-3.744
174505.000			29.953			-3.744
174604.000			29.952			-3.744
174704.000			29.952			-3.744
174805.000			29.952			-3.744
174904.000			29.951			-3.744
175004.000			29.952			-3.744
175104.000			29.950			-3.744
175204.000			29.950			-3.744
175304.000			29.949			-3.744
175405.000			29.948			-3.744
175504.000			29.948			-3.744
175604.000			29.947			-3.743
175705.000			29.947			-3.743
175804.000			29.947			-3.743
175904.000			29.945			-3.743
176004.000			29.943			-3.743
176104.000			29.944			-3.743
176203.000			29.944			-3.743
176305.000			29.943			-3.743
176404.000			29.944			-3.743
176504.000			29.943			-3.743
176605.000			29.943			-3.743
176704.000			29.942			-3.743
176804.000			29.942			-3.743
176905.000			29.941			-3.743
177004.000			29.940			-3.743
177103.000			29.939			-3.742
177205.000			29.938			-3.742
177304.000			29.938			-3.742
177404.000			29.938			-3.742
177505.000			29.938			-3.742
177604.000			29.937			-3.742
177705.000			29.937			-3.742
177804.000			29.936			-3.742
177904.000			29.936			-3.742
178004.000			29.936			-3.742
178104.000			29.934			-3.742
178203.000			29.933			-3.742
178305.000			29.933			-3.742
178404.000			29.933			-3.742
178504.000			29.931			-3.741
178605.000			29.931			-3.741
178704.000			29.931			-3.741
178804.000			29.931			-3.741
178905.000			29.929			-3.741
179004.000			29.929			-3.741
179103.000			29.929			-3.741
179205.000			29.928			-3.741
179304.000			29.929			-3.741
179404.000			29.927			-3.741
179505.000			29.928			-3.741
179604.000			29.927			-3.741
179704.000			29.927			-3.741
179805.000			29.928			-3.741
179904.000			29.927			-3.741
180004.000			29.926			-3.741
180105.000			29.925			-3.741
180203.000			29.924			-3.740
180304.000			29.924			-3.740
180405.000			29.924			-3.740
180504.000			29.924			-3.741
180604.000			29.924			-3.740
180704.000			29.922			-3.740
180804.000			29.922			-3.740
180905.000			29.921			-3.740
181004.000			29.921			-3.740
181103.000			29.921			-3.740
181205.000			29.920			-3.740
181304.000			29.920			-3.740
181404.000			29.920			-3.740
181505.000			29.919			-3.740
181604.000			29.919			-3.740
181704.000			29.918			-3.740
181805.000			29.917			-3.740
181904.000			29.916			-3.740
182003.000			29.916			-3.740
182105.000			29.916			-3.739
182204.000			29.916			-3.739
182304.000			29.914			-3.739
182405.000			29.914			-3.739
182504.000			29.914			-3.739
182604.000			29.914			-3.739
182705.000			29.913			-3.739
182804.000			29.913			-3.739
182903.000			29.912			-3.739
183005.000			29.912			-3.739
183104.000			29.911			-3.739
183204.000			29.910			-3.739
183305.000			29.910			-3.739
183404.000			29.910			-3.739
183504.000			29.910			-3.739
183605.000			29.910			-3.739
183704.000			29.909			-3.739
183803.000			29.907			-3.738
183905.000			29.907			-3.738
184003.000			29.908			-3.738
184105.000			29.907			-3.738
184204.000			29.907			-3.738
184304.000			29.906			-3.738
184405.000			29.905			-3.738
184504.000			29.905			-3.738
184604.000			29.905			-3.738
184705.000			29.905			-3.738
184804.000			29.904			-3.738
184903.000			29.903			-3.738
185005.000			29.902			-3.738
185104.000			29.901			-3.738
185204.000			29.900			-3.738
185305.000			29.901			-3.738
185404.000			29.900			-3.738
185504.000			29.901			-3.738
185605.000			29.900			-3.737
185704.000			29.899			-3.737
185803.000			29.899			-3.737
185905.000			29.898			-3.737
186003.000			29.897			-3.737
186104.000			29.896			-3.737
186205.000			29.896			-3.737
186304.000			29.895			-3.737
186404.000			29.894			-3.737
186505.000			29.894			-3.737
186604.000			29.894			-3.737
186704.000			29.892			-3.737
186805.000			29.891			-3.736
186903.000			29.892			-3.736
187004.000			29.891			-3.736
187105.000			29.891			-3.736
187204.000			29.890			-3.736
187305.000			29.889			-3.736
187404.000			29.890			-3.736
187504.000			29.889			-3.736
187605.000			29.888			-3.736
187704.000			29.887			-3.736
187804.000			29.887			-3.736
187905.000			29.886			-3.736
188003.000			29.886			-3.736
188104.000			29.885			-3.736
188205.000			29.884			-3.736
188304.000			29.885			-3.736
188404.000			29.885			-3.736
188505.000			29.884			-3.735
188604.000			29.883			-3.735
188704.000			29.882			-3.735
188805.000			29.881			-3.735
188904.000			29.880			-3.735
189004.000			29.879			-3.735
189104.000			29.879			-3.735
189204.000			29.879			-3.735
189303.000			29.878			-3.735
189405.000			29.876			-3.735
189504.000			29.876			-3.734
189604.000			29.876			-3.734
189705.000			29.875			-3.734
189804.000			29.873			-3.734
189904.000			29.873			-3.734
190005.000			29.874			-3.734
190104.000			29.873			-3.734
190203.000			29.872			-3.734
190305.000			29.872			-3.734
190404.000			29.871			-3.734
190505.000			29.871			-3.734
190604.000			29.870			-3.734
190704.000			29.869			-3.734
190805.000			29.869			-3.734
190904.000			29.868			-3.734
191004.000			29.867			-3.733
191104.000			29.867			-3.733
191204.000			29.867			-3.733
191303.000			29.866			-3.733
191405.000			29.866			-3.733
191504.000			29.865			-3.733
191604.000			29.865			-3.733
191705.000			29.863			-3.733
191804.000			29.863			-3.733
191904.000			29.863			-3.733
192005.000			29.863			-3.733
192104.000			29.863			-3.733
192203.000			29.862			-3.733
192305.000			29.860			-3.733
192404.000			29.860			-3.733
192504.000			29.860			-3.733
192605.000			29.860			-3.732
192704.000			29.859			-3.732
192804.000			29.858			-3.732
192905.000			29.859			-3.732
193004.000			29.858			-3.732
193103.000			29.857			-3.732
193205.000			29.856			-3.732
193303.000			29.855			-3.732
193404.000			29.855			-3.732
193505.000			29.854			-3.732
193604.000			29.854			-3.732
193705.000			29.854			-3.732
193804.000			29.852			-3.732
193904.000			29.852			-3.732
194005.000			29.851			-3.731
194104.000			29.851			-3.731
194203.000			29.852			-3.731
194305.000			29.851			-3.731
194404.000			29.850			-3.731
194504.000			29.850			-3.731
194605.000			29.849			-3.731
194704.000			29.849			-3.731
194804.000			29.848			-3.731
194905.000			29.848			-3.731
195004.000			29.848			-3.731
195103.000			29.847			-3.731
195205.000			29.847			-3.731
195303.000			29.846			-3.731
195404.000			29.846			-3.731
195505.000			29.845			-3.731
195604.000			29.844			-3.730
195704.000			29.844			-3.730
195805.000			29.844			-3.730
195904.000			29.843			-3.730
196004.000			29.842			-3.730
196105.000			29.843			-3.730
196203.000			29.842			-3.730
196304.000			29.841			-3.730
196404.000			29.841			-3.730
196504.000			29.841			-3.730
196604.000			29.841			-3.730
196704.000			29.840			-3.730
196804.000			29.838			-3.730
196905.000			29.837			-3.730
197004.000			29.837			-3.730
197104.000			29.837			-3.730
197205.000			29.836			-3.730
197303.000			29.836			-3.729
197404.000			29.835			-3.729
197505.000			29.836			-3.729
197604.000			29.835			-3.729
197704.000			29.834			-3.729
197805.000			29.833			-3.729
197904.000			29.833			-3.729
198004.000			29.834			-3.729
198105.000			29.833			-3.729
198204.000			29.833			-3.729
198304.000			29.831			-3.729
198404.000			29.830			-3.729
198504.000			29.831			-3.729
198604.000			29.831			-3.729
198705.000			29.831			-3.729
198804.000			29.830			-3.729
198904.000			29.830			-3.729
199005.000			29.829			-3.729
199104.000			29.828			-3.728
199204.000			29.828			-3.728
199304.000			29.827			-3.728
199404.000			29.826			-3.728
199503.000			29.825			-3.728
199605.000			29.825			-3.728
199704.000			29.825			-3.728
199804.000			29.824			-3.728
199905.000			29.823			-3.728
200004.000			29.824			-3.728
200105.000			29.823			-3.728
200204.000			29.823			-3.728
200304.000			29.824			-3.728
200404.000			29.821			-3.728
200504.000			29.821			-3.728
200604.000			29.821			-3.728
200705.000			29.822			-3.728
200804.000			29.820			-3.727
200904.000			29.819			-3.727
201005.000			29.819			-3.727
201104.000			29.819			-3.727
201204.000			29.817			-3.727
201304.000			29.817			-3.727
201404.000			29.817			-3.727
201504.000			29.816			-3.727
201605.000			29.815			-3.727
201704.000			29.814			-3.727
201804.000			29.815			-3.727
201905.000			29.815			-3.727
202004.000			29.814			-3.727
202104.000			29.814			-3.727
202204.000			29.813			-3.727
202304.000			29.813			-3.727
202404.000			29.812			-3.727
202505.000			29.812			-3.726
202604.000			29.810			-3.726
202704.000			29.809			-3.726
202805.000			29.809			-3.726
202903.000			29.808			-3.726
203004.000			29.808			-3.726
203103.000			29.809			-3.726
203204.000			29.808			-3.726
203305.000			29.809			-3.726
203404.000			29.809			-3.726
203504.000			29.808			-3.726
203605.000			29.807			-3.726
203704.000			29.806			-3.726
203803.000			29.807			-3.726
203905.000			29.806			-3.726
204003.000			29.806			-3.726
204104.000			29.803			-3.725
204205.000			29.803			-3.725
204304.000			29.803			-3.725
204404.000			29.803			-3.725
204505.000			29.803			-3.725
204604.000			29.801			-3.725
204703.000			29.802			-3.725
204805.000			29.802			-3.725
204903.000			29.801			-3.725
205004.000			29.801			-3.725
205105.000			29.801			-3.725
205204.000			29.800			-3.725
205304.000			29.799			-3.725
205405.000			29.799			-3.725
205504.000			29.797			-3.725
205603.000			29.797			-3.725
205705.000			29.796			-3.724
205803.000			29.796			-3.725
205904.000			29.796			-3.725
206005.000			29.795			-3.724
206104.000			29.795			-3.724
206204.000			29.795			-3.724
206304.000			29.794			-3.724
206404.000			29.794			-3.724
206505.000			29.794			-3.724
206604.000			29.792			-3.724
206703.000			29.793			-3.724
206805.000			29.792			-3.724
206904.000			29.791			-3.724
207004.000			29.791			-3.724
207105.000			29.790			-3.724
207204.000			29.790			-3.724
207304.000			29.790			-3.724
207405.000			29.789			-3.724
207504.000			29.790			-3.724
207603.000			29.790			-3.724
207705.000			29.788			-3.723
207803.000			29.787			-3.723
207904.000			29.787			-3.723
208005.000			29.786			-3.723
208104.000			29.786			-3.723
208204.000			29.785			-3.723
208305.000			29.785			-3.723
208404.000			29.784			-3.723
208504.000			29.784			-3.723
208605.000			29.784			-3.723
208703.000			29.784			-3.723
208804.000			29.784			-3.723
208905.000			29.783			-3.723
209004.000			29.781			-3.723
209104.000			29.781			-3.723
209205.000			29.781			-3.723
209304.000			29.781			-3.723
209404.000			29.780			-3.723
209505.000			29.781			-3.723
209603.000			29.779			-3.722
209705.000			29.779			-3.722
209804.000			29.779			-3.722
209904.000			29.778			-3.722
210005.000			29.778			-3.722
210104.000			29.777			-3.722
210204.000			29.776			-3.722
210305.000			29.776			-3.722
210404.000			29.776			-3.722
210503.000			29.775			-3.722
210605.000			29.775			-3.722
210704.000			29.774			-3.722
210804.000			29.774			-3.722
210905.000			29.774			-3.722
211004.000			29.774			-3.722
211104.000			29.773			-3.722
211205.000			29.773			-3.722
211304.000			29.772			-3.722
211403.000			29.771			-3.721
211505.000			29.770			-3.721
211604.000			29.770			-3.721
211704.000			29.769			-3.721
211805.000			29.770			-3.721
211904.000			29.769			-3.721
212004.000			29.768			-3.721
212105.000			29.768			-3.721
212204.000			29.769			-3.721
212303.000			29.768			-3.721
212405.000			29.767			-3.721
212503.000			29.768			-3.721
212604.000			29.767			-3.721
212705.000			29.766			-3.721
212804.000			29.766			-3.721
212905.000			29.766			-3.721
213004.000			29.766			-3.721
213104.000			29.764			-3.721
213205.000			29.764			-3.721
213304.000			29.764			-3.721
213403.000			29.763			-3.720
213505.000			29.761			-3.720
213604.000			29.761			-3.720
213704.000			29.761			-3.720
213805.000			29.761			-3.720
213904.000			29.761			-3.720
214004.000			29.761			-3.720
214105.000			29.760			-3.720
214204.000			29.759			-3.720
214303.000			29.758			-3.720
214405.000			29.758			-3.720
214504.000			29.758			-3.720
214604.000			29.757			-3.720
214705.000			29.757			-3.720
214804.000			29.758			-3.720
214904.000			29.757			-3.720
215005.000			29.756			-3.720
215104.000			29.756			-3.720
215203.000			29.756			-3.720
215305.000			29.755			-3.719
215404.000			29.754			-3.719
215504.000			29.753			-3.719
215605.000			29.754			-3.719
215704.000			29.753			-3.719
215804.000			29.752			-3.719
215904.000			29.752			-3.719
216004.000			29.752			-3.719
216103.000			29.751			-3.719
216204.000			29.751			-3.719
216304.000			29.750			-3.719
216405.000			29.749			-3.719
216504.000			29.750			-3.719
216604.000			29.749			-3.719
216705.000			29.748			-3.719
216804.000			29.748			-3.718
216904.000			29.746			-3.718
217004.000			29.746			-3.718
217104.000			29.747			-3.718
217204.000			29.747			-3.718
217305.000			29.746			-3.718
217404.000			29.747			-3.718
217504.000			29.747			-3.718
217605.000			29.746			-3.718
217704.000			29.745			-3.718
217804.000			29.744			-3.718
217904.000			29.744			-3.718
218004.000			29.744			-3.718
218103.000			29.742			-3.718
218205.000			29.741			-3.718
218304.000			29.741			-3.718
218404.000			29.741			-3.718
218505.000			29.742			-3.718
218604.000			29.741			-3.718
218704.000			29.740			-3.717
218804.000			29.738			-3.717
218904.000			29.738			-3.717
219003.000			29.739			-3.717
219105.000			29.739			-3.717
219204.000			29.738			-3.717
219305.000			29.736			-3.717
219404.000			29.737			-3.717
219504.000			29.736			-3.717
219605.000			29.736			-3.717
219704.000			29.736			-3.717
219804.000			29.735			-3.717
219904.000			29.735			-3.717
220004.000			29.733			-3.717
220104.000			29.734			-3.717
220205.000			29.733			-3.717
220304.000			29.732			-3.717
220404.000			29.731			-3.716
220505.000			29.731			-3.716
220604.000			29.731			-3.716
220704.000			29.730			-3.716
220804.000			29.730			-3.716
220904.000			29.729			-3.716
221004.000			29.729			-3.716
221105.000			29.729			-3.716
221204.000			29.728			-3.716
221304.000			29.728			-3.716
221405.000			29.727			-3.716
221504.000			29.727			-3.716
221604.000			29.726			-3.716
221704.000			29.726			-3.716
221804.000			29.726			-3.716
221904.000			29.726			-3.716
222005.000			29.726			-3.716
222104.000			29.726			-3.716
222204.000			29.725			-3.716
222305.000			29.724			-3.716
222404.000			29.725			-3.716
222505.000			29.725			-3.716
222603.000			29.724			-3.715
222704.000			29.722			-3.715
222805.000			29.723			-3.715
222904.000			29.721			-3.715
223004.000			29.720			-3.715
223105.000			29.721			-3.715
223204.000			29.721			-3.715
223303.000			29.721			-3.715
223405.000			29.721			-3.715
223503.000			29.720			-3.715
223604.000			29.720			-3.715
223705.000			29.719			-3.715
223804.000			29.719			-3.715
223904.000			29.718			-3.715
224005.000			29.718			-3.715
224104.000			29.717			-3.715
224204.000			29.717			-3.715
224305.000			29.717			-3.715
224403.000			29.717			-3.715
224504.000			29.716			-3.714
224605.000			29.715			-3.714
224704.000			29.714			-3.714
224804.000			29.714			-3.714
224905.000			29.714			-3.714
225004.000			29.713			-3.714
225103.000			29.713			-3.714
225205.000			29.713			-3.714
225303.000			29.712			-3.714
225404.000			29.711			-3.714
225505.000			29.711			-3.714
225604.000			29.710			-3.714
225705.000			29.710			-3.714
225804.000			29.711			-3.714
225904.000			29.710			-3.714
226004.000			29.709			-3.714
226104.000			29.708			-3.714
226203.000			29.708			-3.713
226305.000			29.707			-3.713
226404.000			29.707			-3.713
226504.000			29.707			-3.713
226605.000			29.707			-3.713
226704.000			29.707			-3.713
226804.000			29.707			-3.713
226904.000			29.706			-3.713
227004.000			29.706			-3.713
227103.000			29.705			-3.713
227205.000			29.704			-3.713
227304.000			29.703			-3.713
227404.000			29.703			-3.713
227505.000			29.703			-3.713
227604.000			29.703			-3.713
227704.000			29.702			-3.713
227804.000			29.702			-3.713
227904.000			29.701			-3.713
228003.000			29.700			-3.713
228105.000			29.700			-3.712
228204.000			29.700			-3.712
228304.000			29.700			-3.712
228405.000			29.699			-3.712
228504.000			29.698			-3.712
228604.000			29.698			-3.712
228704.000			29.698			-3.712
228804.000			29.698			-3.712
228903.000			29.697			-3.712
229004.000			29.697			-3.712
229103.000			29.696			-3.712
229205.000			29.696			-3.712
229304.000			29.697			-3.712
229404.000			29.695			-3.712
229505.000			29.695			-3.712
229604.000			29.695			-3.712
229704.000			29.694			-3.712
229805.000			29.693			-3.712
229904.000			29.693			-3.712
230003.000			29.693			-3.712
230105.000			29.692			-3.712
230204.000			29.691			-3.711
230304.000			29.691			-3.711
230405.000			29.691			-3.711
230504.000			29.691			-3.711
230604.000			29.691			-3.711
230705.000			29.690			-3.711
230804.000			29.690			-3.711
230903.000			29.689			-3.711
231005.000			29.689			-3.711
231104.000			29.688			-3.711
231204.000			29.687			-3.711
231305.000			29.686			-3.711
231404.000			29.687			-3.711
231504.000			29.687			-3.711
231605.000			29.686			-3.711
231704.000			29.686			-3.711
231803.000			29.687			-3.711
231905.000			29.686			-3.711
232003.000			29.685			-3.711
232105.000			29.684			-3.711
232204.000			29.683			-3.710
232304.000			29.684			-3.710
232405.000			29.683			-3.710
232504.000			29.683			-3.710
232604.000			29.683			-3.710
232704.000			29.683			-3.710
232804.000			29.682			-3.710
232903.000			29.682			-3.710
233005.000			29.681			-3.710
233104.000			29.680			-3.710
233204.000			29.680			-3.710
233305.000			29.680			-3.710
233404.000			29.679			-3.710
233504.000			29.679			-3.710
233604.000			29.678			-3.710
233704.000			29.678			-3.710
233803.000			29.677			-3.710
233905.000			29.676			-3.710
234004.000			29.678			-3.710
234104.000			29.677			-3.710
234205.000			29.676			-3.709
234304.000			29.675			-3.709
234404.000			29.675			-3.709
234505.000			29.675			-3.709
234604.000			29.674			-3.709
234703.000			29.674			-3.709
234805.000			29.674			-3.709
234904.000			29.673			-3.709
235004.000			29.673			-3.709
235105.000			29.672			-3.709
235204.000			29.672			-3.709
235305.000			29.672			-3.709
235404.000			29.671			-3.709
235504.000			29.670			-3.709
235604.000			29.670			-3.709
235704.000			29.670			-3.709
235803.000			29.669			-3.709
235905.000			29.668			-3.709
236004.000			29.667			-3.708
236104.000			29.666			-3.708
236205.000			29.667			-3.708
236304.000			29.667			-3.708
236404.000			29.667			-3.708
236504.000			29.667			-3.708
236604.000			29.667			-3.708
236703.000			29.665			-3.708
236805.000			29.665			-3.708
236904.000			29.666			-3.708
237004.000			29.665			-3.708
237105.000			29.666			-3.708
237204.000			29.665			-3.708
237304.000			29.663			-3.708
237404.000			29.663			-3.708
237504.000			29.662			-3.708
237603.000			29.662			-3.708
237705.000			29.662			-3.708
237804.000			29.661			-3.708
237904.000			29.660			-3.707
238005.000			29.660			-3.707
238104.000			29.660			-3.708
238204.000			29.660			-3.708
238304.000			29.660			-3.708
238404.000			29.660			-3.707
238503.000			29.659			-3.707
238604.000			29.658			-3.707
238704.000			29.658			-3.707
238805.000			29.657			-3.707
238904.000			29.657			-3.707
239004.000			29.656			-3.707
239105.000			29.656			-3.707
239204.000			29.655			-3.707
239304.000			29.655			-3.707
239404.000			29.655			-3.707
239504.000			29.655			-3.707
239603.000			29.654			-3.707
239705.000			29.654			-3.707
239804.000			29.654			-3.707
239904.000			29.653			-3.707
240005.000			29.653			-3.707
240104.000			29.652			-3.707
240204.000			29.653			-3.707
240304.000			29.652			-3.706
240404.000			29.650			-3.706
240503.000			29.650			-3.706
240605.000			29.650			-3.706
240704.000			29.650			-3.706
240804.000			29.649			-3.706
240905.000			29.649			-3.706
241004.000			29.649			-3.706
241104.000			29.650			-3.706
241204.000			29.649			-3.706
241304.000			29.647			-3.706
241403.000			29.647			-3.706
241505.000			29.647			-3.706
241604.000			29.647			-3.706
241705.000			29.646			-3.706
241804.000			29.646			-3.706
241904.000			29.645			-3.706
242005.000			29.644			-3.706
242104.000			29.645			-3.706
242204.000			29.645			-3.706
242304.000			29.645			-3.706
242404.000			29.644			-3.705
242504.000			29.643			-3.705
242605.000			29.642			-3.705
242704.000			29.642			-3.705
242804.000			29.642			-3.705
242905.000			29.642			-3.705
243004.000			29.641			-3.705
243104.000			29.641			-3.705
243204.000			29.642			-3.705
243304.000			29.640			-3.705
243404.000			29.640			-3.705
243505.000			29.640			-3.705
243604.000			29.639			-3.705
243704.000			29.638			-3.705
243805.000			29.639			-3.705
243904.000			29.640			-3.705
244004.000			29.637			-3.705
244104.000			29.637			-3.705
244204.000			29.636			-3.705
244304.000			29.636			-3.704
244405.000			29.635			-3.704
244504.000			29.635			-3.704
244604.000			29.636			-3.705
244705.000			29.635			-3.704
244804.000			29.634			-3.704
244905.000			29.634			-3.704
245003.000			29.634			-3.704
245104.000			29.634			-3.704
245205.000			29.633			-3.704
245304.000			29.633			-3.704
245404.000			29.632			-3.704
245505.000			29.632			-3.704
245604.000			29.633			-3.704
245704.000			29.632			-3.704
245805.000			29.632			-3.704
245903.000			29.631			-3.704
246004.000			29.630			-3.704
246105.000			29.630			-3.704
246204.000			29.629			-3.704
246304.000			29.629			-3.704
246405.000			29.628			-3.704
246504.000			29.628			-3.704
246604.000			29.628			-3.704
246705.000			29.628			-3.703
246803.000			29.627			-3.703
246904.000			29.626			-3.703
247004.000			29.626			-3.703
247104.000			29.625			-3.703
247204.000			29.625			-3.703
247305.000			29.625			-3.703
247404.000			29.625			-3.703
247504.000			29.623			-3.703
247605.000			29.625			-3.703
247703.000			29.624			-3.703
247804.000			29.624			-3.703
247903.000			29.623			-3.703
248004.000			29.622			-3.703
248105.000			29.622			-3.703
248204.000			29.622			-3.703
248304.000			29.620			-3.702
248405.000			29.621			-3.703
248504.000			29.620			-3.702
248604.000			29.620			-3.702
248705.000			29.620			-3.702
248803.000			29.619			-3.702
248904.000			29.618			-3.702
249005.000			29.618			-3.702
249104.000			29.619			-3.702
249204.000			29.618			-3.702
249305.000			29.618			-3.702
249404.000			29.617			-3.702
249504.000			29.616			-3.702
249605.000			29.616			-3.702
249703.000			29.615			-3.702
249804.000			29.615			-3.702
249904.000			29.615			-3.702
250004.000			29.615			-3.702
250104.000			29.615			-3.702
250205.000			29.614			-3.702
250304.000			29.613			-3.702
250404.000			29.613			-3.702
250505.000			29.613			-3.702
250603.000			29.612			-3.702
250704.000			29.611			-3.701
250804.000			29.612			-3.701
250904.000			29.612			-3.702
251004.000			29.611			-3.701
251104.000			29.611			-3.701
251204.000			29.610			-3.701
251305.000			29.609			-3.701
251404.000			29.610			-3.701
251503.000			29.610			-3.701
251605.000			29.611			-3.701
251703.000			29.610			-3.701
251804.000			29.609			-3.701
251905.000			29.609			-3.701
252004.000			29.609			-3.701
252104.000			29.608			-3.701
252205.000			29.608			-3.701
252304.000			29.607			-3.701
252403.000			29.606			-3.701
252505.000			29.606			-3.701
252603.000			29.606			-3.701
252704.000			29.604			-3.701
252805.000			29.604			-3.700
252904.000			29.604			-3.701
253004.000			29.605			-3.701
253105.000			29.604			-3.700
253204.000			29.603			-3.700
253304.000			29.603			-3.700
253405.000			29.602			-3.700
253503.000			29.602			-3.700
253604.000			29.602			-3.700
253705.000			29.603			-3.700
253804.000			29.602			-3.700
253904.000			29.601			-3.700
254005.000			29.601			-3.700
254104.000			29.599			-3.700
254204.000			29.600			-3.700
254305.000			29.600			-3.700
254403.000			29.599			-3.700
254505.000			29.599			-3.700
254604.000			29.599			-3.700
254704.000			29.599			-3.700
254805.000			29.598			-3.700
254904.000			29.597			-3.700
255004.000			29.597			-3.700
255105.000			29.596			-3.700
255204.000			29.595			-3.699
255304.000			29.596			-3.699
255405.000			29.594			-3.699
255503.000			29.594			-3.699
255604.000			29.595			-3.699
255705.000			29.595			-3.699
255804.000			29.594			-3.699
255904.000			29.593			-3.699
256005.000			29.592			-3.699
256104.000			29.592			-3.699
256204.000			29.591			-3.699
256305.000			29.592			-3.699
256403.000			29.591			-3.699
256504.000			29.590			-3.699
256605.000			29.590			-3.699
256704.000			29.590			-3.699
256804.000			29.589			-3.699
256905.000			29.589			-3.699
257004.000			29.588			-3.699
257104.000			29.589			-3.699
257205.000			29.589			-3.699
257303.000			29.587			-3.698
257404.000			29.587			-3.698
257503.000			29.587			-3.698
257604.000			29.588			-3.698
257705.000			29.586			-3.698
257804.000			29.585			-3.698
257904.000			29.585			-3.698
258005.000			29.585			-3.698
258104.000			29.585			-3.698
258204.000			29.585			-3.698
258305.000			29.584			-3.698
258403.000			29.584			-3.698
258504.000			29.584			-3.698
258604.000			29.583			-3.698
258704.000			29.583			-3.698
258804.000			29.583			-3.698
258905.000			29.581			-3.698
259004.000			29.581			-3.698
259104.000			29.581			-3.698
259205.000			29.581			-3.698
259304.000			29.580			-3.697
259404.000			29.579			-3.697
259504.000			29.580			-3.698
259604.000			29.580			-3.698
259704.000			29.580			-3.697
259805.000			29.579			-3.697
259904.000			29.578			-3.697
260004.000			29.579			-3.697
260105.000			29.578			-3.697
260204.000			29.576			-3.697
260304.000			29.576			-3.697
260404.000			29.576			-3.697
260504.000			29.575			-3.697
260603.000			29.576			-3.697
260705.000			29.574			-3.697
260804.000			29.575			-3.697
260905.000			29.575			-3.697
261004.000			29.574			-3.697
261104.000			29.574			-3.697
261205.000			29.573			-3.697
261304.000			29.573			-3.697
261404.000			29.573			-3.697
261504.000			29.572			-3.697
261604.000			29.572			-3.696
261704.000			29.573			-3.697
261805.000			29.573			-3.697
261904.000			29.572			-3.696
262004.000			29.571			-3.696
262105.000			29.571			-3.696
262204.000			29.570			-3.696
262304.000			29.569			-3.696
262404.000			29.569			-3.696
262504.000			29.569			-3.696
262604.000			29.569			-3.696
262705.000			29.569			-3.696
262804.000			29.568			-3.696
262904.000			29.569			-3.696
263005.000			29.567			-3.696
263104.000			29.566			-3.696
263204.000			29.566			-3.696
263304.000			29.566			-3.696
263404.000			29.565			-3.696
263504.000			29.565			-3.696
263605.000			29.566			-3.696
263704.000			29.565			-3.696
263804.000			29.565			-3.696
263905.000			29.564			-3.695
264004.000			29.564			-3.696
264105.000			29.564			-3.695
264203.000			29.563			-3.695
264304.000			29.563			-3.695
264405.000			29.563			-3.695
264504.000			29.562			-3.695
264604.000			29.563			-3.695
264705.000			29.562			-3.695
264804.000			29.562			-3.695
264904.000			29.562			-3.695
265005.000			29.561			-3.695
265103.000			29.561			-3.695
265204.000			29.560			-3.695
265305.000			29.559			-3.695
265404.000			29.559			-3.695
265504.000			29.559			-3.695
265605.000			29.558			-3.695
265704.000			29.558			-3.695
265804.000			29.557			-3.695
265905.000			29.556			-3.695
266003.000			29.557			-3.695
266104.000			29.557			-3.695
266204.000			29.557			-3.695
266304.000			29.556			-3.695
266404.000			29.556			-3.695
266505.000			29.556			-3.694
266604.000			29.555			-3.694
266704.000			29.554			-3.694
266805.000			29.555			-3.694
266904.000			29.554			-3.694
267004.000			29.553			-3.694
267103.000			29.553			-3.694
267204.000			29.552			-3.694
267305.000			29.551			-3.694
267404.000			29.550			-3.694
267504.000			29.551			-3.694
267605.000			29.552			-3.694
267704.000			29.552			-3.694
267804.000			29.551			-3.694
267905.000			29.551			-3.694
268003.000			29.549			-3.694
268104.000			29.550			-3.694
268205.000			29.548			-3.694
268304.000			29.548			-3.693
268404.000			29.547			-3.693
268505.000			29.548			-3.693
268604.000			29.547			-3.693
268704.000			29.548			-3.693
268805.000			29.547			-3.693
268903.000			29.546			-3.693
269004.000			29.545			-3.693
269105.000			29.546			-3.693
269204.000			29.546			-3.693
269304.000			29.545			-3.693
269405.000			29.545			-3.693
269504.000			29.544			-3.693
269604.000			29.544			-3.693
269705.000			29.544			-3.693
269803.000			29.543			-3.693
269904.000			29.543			-3.693
270005.000			29.544			-3.693
270104.000			29.543			-3.693
270204.000			29.543			-3.693
270304.000			29.542			-3.693
270404.000			29.542			-3.693
270505.000			29.541			-3.693
270604.000			29.540			-3.693
270703.000			29.539			-3.692
270805.000			29.540			-3.693
270904.000			29.540			-3.693
271004.000			29.540			-3.692
271105.000			29.540			-3.692
271204.000			29.539			-3.692
271304.000			29.538			-3.692
271405.000			29.537			-3.692
271504.000			29.537			-3.692
271603.000			29.538			-3.692
271705.000			29.537			-3.692
271804.000			29.537			-3.692
271904.000			29.537			-3.692
272005.000			29.536			-3.692
272104.000			29.536			-3.692
272204.000			29.536			-3.692
272305.000			29.536			-3.692
272404.000			29.535			-3.692
272503.000			29.534			-3.692
272605.000			29.535			-3.692
272703.000			29.535			-3.692
272804.000			29.534			-3.692
272905.000			29.533			-3.692
273004.000			29.534			-3.692
273104.000			29.533			-3.692
273205.000			29.532			-3.692
273304.000			29.532			-3.691
273403.000			29.531			-3.691
273505.000			29.533			-3.692
273603.000			29.532			-3.691
273705.000			29.531			-3.691
273804.000			29.530			-3.691
273904.000			29.529			-3.691
274005.000			29.530			-3.691
274104.000			29.529			-3.691
274204.000			29.529			-3.691
274304.000			29.528			-3.691
274404.000			29.528			-3.691
274503.000			29.527			-3.691
274605.000			29.527			-3.691
274704.000			29.528			-3.691
274804.000			29.527			-3.691
274905.000			29.526			-3.691
275004.000			29.527			-3.691
275104.000			29.526			-3.691
275205.000			29.525			-3.691
275304.000			29.525			-3.691
275403.000			29.525			-3.691
275505.000			29.524			-3.691
275604.000			29.524			-3.690
275704.000			29.522			-3.690
275805.000			29.523			-3.690
275904.000			29.522			-3.690
276004.000			29.521			-3.690
276105.000			29.521			-3.690
276204.000			29.522			-3.690
276303.000			29.521			-3.690
276405.000			29.521			-3.690
276504.000			29.521			-3.690
276604.000			29.520			-3.690
276705.000			29.521			-3.690
276804.000			29.521			-3.690
276905.000			29.520			-3.690
277004.000			29.520			-3.690
277104.000			29.520			-3.690
277204.000			29.520			-3.690
277304.000			29.519			-3.690
277404.000			29.518			-3.690
277505.000			29.518			-3.690
277604.000			29.517			-3.690
277704.000			29.516			-3.689
277805.000			29.515			-3.689
277904.000			29.516			-3.690
278004.000			29.516			-3.690
278104.000			29.515			-3.689
278204.000			29.515			-3.689
278303.000			29.514			-3.689
278405.000			29.514			-3.689
278504.000			29.514			-3.689
278604.000			29.514			-3.689
278705.000			29.514			-3.689
278804.000			29.513			-3.689
278904.000			29.513			-3.689
279004.000			29.513			-3.689
279104.000			29.513			-3.689
279203.000			29.513			-3.689
279305.000			29.512			-3.689
279404.000			29.512			-3.689
279504.000			29.512			-3.689
279605.000			29.511			-3.689
279704.000			29.511			-3.689
279804.000			29.511			-3.689
279904.000			29.510			-3.689
280004.000			29.509			-3.689
280103.000			29.510			-3.689
280204.000			29.510			-3.689
280304.000			29.509			-3.689
280405.000			29.508			-3.688
280504.000			29.507			-3.688
280604.000			29.506			-3.688
280705.000			29.506			-3.688
280804.000			29.506			-3.688
280904.000			29.506			-3.688
281004.000			29.506			-3.688
281104.000			29.506			-3.688
281204.000			29.504			-3.688
281305.000			29.505			-3.688
281404.000			29.505			-3.688
281504.000			29.504			-3.688
281605.000			29.504			-3.688
281704.000			29.502			-3.688
281804.000			29.502			-3.688
281904.000			29.501			-3.688
282004.000			29.501			-3.688
282104.000			29.502			-3.688
282205.000			29.502			-3.688
282304.000			29.501			-3.688
282404.000			29.500			-3.688
282505.000			29.500			-3.688
282603.000			29.500			-3.687
282704.000			29.500			-3.688
282804.000			29.501			-3.688
282904.000			29.500			-3.688
283004.000			29.499			-3.687
283104.000			29.499			-3.687
283204.000			29.498			-3.687
283305.000			29.498			-3.687
283404.000			29.497			-3.687
283504.000			29.497			-3.687
283605.000			29.497			-3.687
283703.000			29.497			-3.687
283804.000			29.496			-3.687
283905.000			29.495			-3.687
284004.000			29.495			-3.687
284104.000			29.497			-3.687
284205.000			29.497			-3.687
284304.000			29.496			-3.687
284404.000			29.495			-3.687
284505.000			29.495			-3.687
284603.000			29.493			-3.687
284704.000			29.493			-3.687
284804.000			29.493			-3.687
284904.000			29.493			-3.687
285004.000			29.493			-3.687
285105.000			29.492			-3.686
285204.000			29.492			-3.686
285304.000			29.492			-3.687
285405.000			29.491			-3.686
285504.000			29.491			-3.686
285604.000			29.490			-3.686
285704.000			29.490			-3.686
285804.000			29.490			-3.686
285904.000			29.490			-3.686
286005.000			29.490			-3.686
286104.000			29.489			-3.686
286204.000			29.488			-3.686
286305.000			29.489			-3.686
286404.000			29.488			-3.686
286505.000			29.488			-3.686
286604.000			29.489			-3.686
286704.000			29.488			-3.686
286804.000			29.487			-3.686
286904.000			29.486			-3.686
287004.000			29.486			-3.686
287105.000			29.486			-3.686
287204.000			29.486			-3.686
287304.000			29.485			-3.686
287405.000			29.485			-3.686
287504.000			29.484			-3.686
287604.000			29.484			-3.685
287704.000			29.484			-3.685
287804.000			29.485			-3.686
287903.000			29.483			-3.685
288005.000			29.483			-3.685
288104.000			29.484			-3.685
288204.000			29.481			-3.685
288305.000			29.481			-3.685
288404.000			29.481			-3.685
288504.000			29.481			-3.685
288605.000			29.481			-3.685
288704.000			29.482			-3.685
288803.000			29.481			-3.685
288905.000			29.481			-3.685
289004.000			29.480			-3.685
289104.000			29.480			-3.685
289205.000			29.480			-3.685
289304.000			29.480			-3.685
289404.000			29.480			-3.685
289504.000			29.478			-3.685
289604.000			29.478			-3.685
289703.000			29.477			-3.685
289804.000			29.477			-3.685
289903.000			29.476			-3.685
290005.000			29.476			-3.685
290104.000			29.475			-3.684
290204.000			29.474			-3.684
290305.000			29.475			-3.684
290404.000			29.476			-3.684
290504.000			29.475			-3.684
290604.000			29.474			-3.684
290704.000			29.473			-3.684
290803.000			29.474			-3.684
290905.000			29.475			-3.684
291004.000			29.474			-3.684
291104.000			29.473			-3.684
291205.000			29.473			-3.684
291304.000			29.472			-3.684
291404.000			29.473			-3.684
291504.000			29.474			-3.684
291604.000			29.473			-3.684
291703.000			29.472			-3.684
291805.000			29.471			-3.684
291904.000			29.470			-3.684
292004.000			29.470			-3.684
292105.000			29.470			-3.684
292204.000			29.469			-3.684
292304.000			29.468			-3.684
292404.000			29.468			-3.684
292504.000			29.468			-3.684
292603.000			29.469			-3.684
292705.000			29.468			-3.684
292804.000			29.467			-3.683
292905.000			29.468			-3.684
293004.000			29.468			-3.683
293104.000			29.467			-3.683
293205.000			29.467			-3.683
293304.000			29.466			-3.683
293404.000			29.466			-3.683
293504.000			29.466			-3.683
293604.000			29.465			-3.683
293704.000			29.465			-3.683
293805.000			29.465			-3.683
293904.000			29.465			-3.683
294004.000			29.464			-3.683
294105.000			29.464			-3.683
294204.000			29.464			-3.683
294304.000			29.463			-3.683
294404.000			29.464			-3.683
294504.000			29.464			-3.683
294603.000			29.463			-3.683
294705.000			29.462			-3.683
294804.000			29.462			-3.683
294904.000			29.461			-3.683
295005.000			29.460			-3.682
295104.000			29.461			-3.683
295204.000			29.462			-3.683
295304.000			29.461			-3.683
295404.000			29.460			-3.683
295503.000			29.459			-3.682
295605.000			29.460			-3.682
295704.000			29.460			-3.683
295804.000			29.459			-3.682
295905.000			29.458			-3.682
296004.000			29.457			-3.682
296105.000			29.457			-3.682
296204.000			29.457			-3.682
296304.000			29.455			-3.682
296404.000			29.456			-3.682
296504.000			29.455			-3.682
296604.000			29.455			-3.682
296705.000			29.455			-3.682
296804.000			29.454			-3.682
296904.000			29.454			-3.682
297005.000			29.455			-3.682
297104.000			29.454			-3.682
297204.000			29.453			-3.682
297304.000			29.453			-3.682
297404.000			29.453			-3.682
297503.000			29.452			-3.682
297605.000			29.452			-3.682
297704.000			29.452			-3.681
297804.000			29.452			-3.682
297905.000			29.452			-3.682
298004.000			29.452			-3.681
298104.000			29.451			-3.681
298205.000			29.449			-3.681
298304.000			29.450			-3.681
298403.000			29.449			-3.681
298505.000			29.449			-3.681
298604.000			29.449			-3.681
298704.000			29.448			-3.681
298805.000			29.448			-3.681
298904.000			29.449			-3.681
299004.000			29.449			-3.681
299104.000			29.447			-3.681
299204.000			29.448			-3.681
299303.000			29.447			-3.681
299404.000			29.446			-3.681
299503.000			29.446			-3.681
299605.000			29.447			-3.681
299704.000			29.446			-3.681
299804.000			29.447			-3.681
299905.000			29.445			-3.681
