# Acquired on 10/01/2024 13:54:37 
# SPIDER: Creep_5mm_07714532C-1
# CREEP MEASUREMENT

# time [ms]		force [N]		stiffness [N/mm]
0.000			-5.957			-1.191
100.000			-6.551			-1.310
200.000			-6.903			-1.381
302.000			-6.872			-1.374
400.000			-6.840			-1.368
500.000			-6.816			-1.363
601.000			-6.798			-1.360
700.000			-6.781			-1.356
800.000			-6.766			-1.353
901.000			-6.740			-1.348
1001.000			-6.730			-1.346
1100.000			-6.719			-1.344
1201.000			-6.709			-1.342
1300.000			-6.702			-1.340
1400.000			-6.693			-1.339
1501.000			-6.685			-1.337
1600.000			-6.678			-1.336
1702.000			-6.665			-1.333
1801.000			-6.658			-1.332
1900.000			-6.653			-1.331
2001.000			-6.647			-1.329
2100.000			-6.641			-1.328
2200.000			-6.635			-1.327
2301.000			-6.630			-1.326
2400.000			-6.621			-1.324
2501.000			-6.617			-1.323
2602.000			-6.613			-1.323
2700.000			-6.609			-1.322
2800.000			-6.603			-1.321
2901.000			-6.600			-1.320
3000.000			-6.596			-1.319
3100.000			-6.588			-1.318
3202.000			-6.585			-1.317
3301.000			-6.581			-1.316
3400.000			-6.579			-1.316
3501.000			-6.575			-1.315
3600.000			-6.571			-1.314
3700.000			-6.568			-1.314
3801.000			-6.562			-1.312
3900.000			-6.559			-1.312
4001.000			-6.557			-1.311
4102.000			-6.555			-1.311
4200.000			-6.552			-1.310
4300.000			-6.549			-1.310
4401.000			-6.546			-1.309
4500.000			-6.542			-1.308
4600.000			-6.538			-1.308
4701.000			-6.534			-1.307
4801.000			-6.531			-1.306
4900.000			-6.529			-1.306
5000.000			-6.527			-1.305
5100.000			-6.525			-1.305
5201.000			-6.523			-1.305
5300.000			-6.518			-1.304
5400.000			-6.516			-1.303
5502.000			-6.514			-1.303
5601.000			-6.512			-1.302
5700.000			-6.509			-1.302
5801.000			-6.507			-1.301
5900.000			-6.505			-1.301
6000.000			-6.502			-1.300
6101.000			-6.500			-1.300
6201.000			-6.498			-1.300
6301.000			-6.496			-1.299
6401.000			-6.494			-1.299
6500.000			-6.491			-1.298
6600.000			-6.490			-1.298
6701.000			-6.488			-1.298
6800.000			-6.485			-1.297
6900.000			-6.484			-1.297
7001.000			-6.483			-1.297
7101.000			-6.482			-1.296
7201.000			-6.480			-1.296
7301.000			-6.479			-1.296
7400.000			-6.476			-1.295
7500.000			-6.473			-1.295
7601.000			-6.472			-1.294
7700.000			-6.469			-1.294
7800.000			-6.468			-1.294
7902.000			-6.468			-1.294
8001.000			-6.465			-1.293
8100.000			-6.463			-1.293
8200.000			-6.462			-1.292
8300.000			-6.460			-1.292
8401.000			-6.459			-1.292
8500.000			-6.458			-1.292
8601.000			-6.456			-1.291
8702.000			-6.455			-1.291
8800.000			-6.452			-1.290
8900.000			-6.450			-1.290
9001.000			-6.449			-1.290
9100.000			-6.448			-1.290
9200.000			-6.447			-1.289
9301.000			-6.446			-1.289
9401.000			-6.444			-1.289
9501.000			-6.442			-1.288
9601.000			-6.441			-1.288
9700.000			-6.439			-1.288
9800.000			-6.438			-1.288
9901.000			-6.437			-1.287
10000.000			-6.435			-1.287
10100.000			-6.434			-1.287
10202.000			-6.433			-1.287
10301.000			-6.432			-1.286
10400.000			-6.430			-1.286
10501.000			-6.428			-1.286
10600.000			-6.428			-1.286
10700.000			-6.427			-1.285
10801.000			-6.427			-1.285
10901.000			-6.425			-1.285
11001.000			-6.423			-1.285
11101.000			-6.422			-1.284
11200.000			-6.420			-1.284
11300.000			-6.419			-1.284
11400.000			-6.417			-1.283
11500.000			-6.416			-1.283
11601.000			-6.416			-1.283
11701.000			-6.415			-1.283
11801.000			-6.412			-1.282
11901.000			-6.412			-1.282
12000.000			-6.411			-1.282
12100.000			-6.410			-1.282
12201.000			-6.409			-1.282
12300.000			-6.408			-1.282
12400.000			-6.407			-1.281
12502.000			-6.406			-1.281
12601.000			-6.405			-1.281
12700.000			-6.404			-1.281
12801.000			-6.402			-1.280
12900.000			-6.401			-1.280
13000.000			-6.401			-1.280
13101.000			-6.399			-1.280
13201.000			-6.397			-1.279
13301.000			-6.395			-1.279
13401.000			-6.394			-1.279
13500.000			-6.393			-1.279
13600.000			-6.393			-1.279
13701.000			-6.392			-1.278
13800.000			-6.390			-1.278
13900.000			-6.390			-1.278
14002.000			-6.388			-1.278
14101.000			-6.387			-1.277
14200.000			-6.386			-1.277
14301.000			-6.384			-1.277
14400.000			-6.383			-1.277
14500.000			-6.383			-1.277
14600.000			-6.382			-1.276
14700.000			-6.382			-1.276
14802.000			-6.380			-1.276
14901.000			-6.378			-1.276
15000.000			-6.377			-1.275
15101.000			-6.377			-1.275
15200.000			-6.375			-1.275
15300.000			-6.374			-1.275
15401.000			-6.374			-1.275
15500.000			-6.373			-1.275
15601.000			-6.372			-1.274
15702.000			-6.371			-1.274
15800.000			-6.370			-1.274
15900.000			-6.368			-1.274
16001.000			-6.368			-1.274
16100.000			-6.368			-1.274
16200.000			-6.366			-1.273
16301.000			-6.366			-1.273
16401.000			-6.365			-1.273
16501.000			-6.364			-1.273
16601.000			-6.363			-1.273
16700.000			-6.362			-1.272
16800.000			-6.362			-1.272
16901.000			-6.360			-1.272
17000.000			-6.360			-1.272
17100.000			-6.359			-1.272
17202.000			-6.359			-1.272
17301.000			-6.358			-1.272
17400.000			-6.357			-1.271
17501.000			-6.357			-1.271
17600.000			-6.357			-1.271
17700.000			-6.355			-1.271
17800.000			-6.355			-1.271
17900.000			-6.354			-1.271
18002.000			-6.353			-1.271
18101.000			-6.353			-1.271
18200.000			-6.354			-1.271
18301.000			-6.353			-1.271
18400.000			-6.351			-1.270
18500.000			-6.350			-1.270
18601.000			-6.350			-1.270
18700.000			-6.350			-1.270
18801.000			-6.349			-1.270
18902.000			-6.348			-1.270
19001.000			-6.347			-1.269
19100.000			-6.346			-1.269
19201.000			-6.345			-1.269
19300.000			-6.345			-1.269
19400.000			-6.345			-1.269
19501.000			-6.343			-1.269
19601.000			-6.343			-1.269
19701.000			-6.345			-1.269
19801.000			-6.342			-1.268
19900.000			-6.343			-1.269
20000.000			-6.342			-1.268
20101.000			-6.341			-1.268
20200.000			-6.341			-1.268
20300.000			-6.339			-1.268
20402.000			-6.337			-1.267
20501.000			-6.337			-1.267
20600.000			-6.337			-1.267
20701.000			-6.337			-1.267
20800.000			-6.335			-1.267
20900.000			-6.335			-1.267
21000.000			-6.335			-1.267
21100.000			-6.334			-1.267
21202.000			-6.333			-1.267
21301.000			-6.332			-1.266
21400.000			-6.331			-1.266
21501.000			-6.330			-1.266
21600.000			-6.330			-1.266
21700.000			-6.329			-1.266
21801.000			-6.328			-1.266
21901.000			-6.328			-1.266
22001.000			-6.328			-1.266
22101.000			-6.327			-1.265
22200.000			-6.326			-1.265
22300.000			-6.325			-1.265
22401.000			-6.325			-1.265
22500.000			-6.325			-1.265
22600.000			-6.325			-1.265
22702.000			-6.323			-1.265
22801.000			-6.321			-1.264
22900.000			-6.321			-1.264
23001.000			-6.322			-1.264
23100.000			-6.321			-1.264
23200.000			-6.321			-1.264
23301.000			-6.321			-1.264
23400.000			-6.319			-1.264
23501.000			-6.319			-1.264
23602.000			-6.318			-1.264
23700.000			-6.318			-1.264
23800.000			-6.318			-1.264
23901.000			-6.316			-1.263
24000.000			-6.316			-1.263
24100.000			-6.315			-1.263
24200.000			-6.314			-1.263
24301.000			-6.313			-1.263
24402.000			-6.314			-1.263
24500.000			-6.313			-1.263
24600.000			-6.312			-1.262
24701.000			-6.312			-1.262
24800.000			-6.312			-1.262
24900.000			-6.310			-1.262
25002.000			-6.309			-1.262
25101.000			-6.309			-1.262
25200.000			-6.308			-1.262
25301.000			-6.308			-1.262
25400.000			-6.307			-1.261
25500.000			-6.307			-1.261
25601.000			-6.306			-1.261
25700.000			-6.305			-1.261
25801.000			-6.304			-1.261
25902.000			-6.303			-1.261
26000.000			-6.304			-1.261
26100.000			-6.302			-1.260
26201.000			-6.301			-1.260
26300.000			-6.301			-1.260
26400.000			-6.302			-1.260
26501.000			-6.301			-1.260
26601.000			-6.300			-1.260
26701.000			-6.299			-1.260
26801.000			-6.299			-1.260
26900.000			-6.300			-1.260
27000.000			-6.300			-1.260
27101.000			-6.297			-1.259
27200.000			-6.297			-1.259
27300.000			-6.297			-1.259
27402.000			-6.296			-1.259
27501.000			-6.296			-1.259
27601.000			-6.295			-1.259
27700.000			-6.295			-1.259
27800.000			-6.294			-1.259
27901.000			-6.294			-1.259
28000.000			-6.294			-1.259
28100.000			-6.293			-1.259
28202.000			-6.293			-1.259
28301.000			-6.292			-1.258
28400.000			-6.292			-1.258
28501.000			-6.291			-1.258
28600.000			-6.291			-1.258
28700.000			-6.290			-1.258
28801.000			-6.290			-1.258
28900.000			-6.290			-1.258
29001.000			-6.290			-1.258
29102.000			-6.290			-1.258
29200.000			-6.289			-1.258
29300.000			-6.288			-1.258
29401.000			-6.287			-1.257
29500.000			-6.286			-1.257
29600.000			-6.287			-1.257
29701.000			-6.287			-1.257
29801.000			-6.286			-1.257
29901.000			-6.285			-1.257
30001.000			-6.283			-1.257
30100.000			-6.283			-1.257
30200.000			-6.284			-1.257
30301.000			-6.284			-1.257
30400.000			-6.282			-1.256
30500.000			-6.282			-1.256
30602.000			-6.281			-1.256
30701.000			-6.282			-1.256
30801.000			-6.281			-1.256
30900.000			-6.280			-1.256
31000.000			-6.279			-1.256
31101.000			-6.279			-1.256
31200.000			-6.278			-1.256
31300.000			-6.279			-1.256
31402.000			-6.278			-1.256
31501.000			-6.278			-1.256
31600.000			-6.277			-1.255
31701.000			-6.276			-1.255
31800.000			-6.276			-1.255
31900.000			-6.276			-1.255
32001.000			-6.276			-1.255
32100.000			-6.275			-1.255
32201.000			-6.274			-1.255
32302.000			-6.274			-1.255
32400.000			-6.273			-1.255
32500.000			-6.273			-1.255
32601.000			-6.273			-1.255
32700.000			-6.273			-1.255
32800.000			-6.272			-1.254
32902.000			-6.270			-1.254
33001.000			-6.271			-1.254
33101.000			-6.272			-1.254
33201.000			-6.271			-1.254
33300.000			-6.269			-1.254
33400.000			-6.269			-1.254
33501.000			-6.269			-1.254
33600.000			-6.268			-1.254
33700.000			-6.268			-1.254
33802.000			-6.269			-1.254
33901.000			-6.268			-1.254
34001.000			-6.267			-1.253
34100.000			-6.267			-1.253
34200.000			-6.266			-1.253
34301.000			-6.265			-1.253
34400.000			-6.264			-1.253
34500.000			-6.263			-1.253
34602.000			-6.263			-1.253
34701.000			-6.263			-1.253
34800.000			-6.263			-1.253
34901.000			-6.261			-1.252
35000.000			-6.261			-1.252
35100.000			-6.261			-1.252
35201.000			-6.260			-1.252
35301.000			-6.259			-1.252
35401.000			-6.259			-1.252
35501.000			-6.258			-1.252
35600.000			-6.258			-1.252
35700.000			-6.259			-1.252
35801.000			-6.256			-1.251
35900.000			-6.255			-1.251
36000.000			-6.256			-1.251
36102.000			-6.256			-1.251
36201.000			-6.254			-1.251
36300.000			-6.254			-1.251
36401.000			-6.255			-1.251
36500.000			-6.255			-1.251
36600.000			-6.254			-1.251
36701.000			-6.253			-1.251
36800.000			-6.252			-1.250
36902.000			-6.252			-1.250
37001.000			-6.252			-1.250
37100.000			-6.252			-1.250
37201.000			-6.251			-1.250
37300.000			-6.251			-1.250
37400.000			-6.250			-1.250
37501.000			-6.251			-1.250
37600.000			-6.251			-1.250
37701.000			-6.251			-1.250
37802.000			-6.250			-1.250
37900.000			-6.249			-1.250
38000.000			-6.249			-1.250
38101.000			-6.250			-1.250
38200.000			-6.249			-1.250
38300.000			-6.248			-1.250
38401.000			-6.247			-1.249
38501.000			-6.247			-1.249
38601.000			-6.248			-1.250
38701.000			-6.247			-1.249
38800.000			-6.246			-1.249
38900.000			-6.246			-1.249
39001.000			-6.245			-1.249
39100.000			-6.246			-1.249
39200.000			-6.245			-1.249
39302.000			-6.245			-1.249
39401.000			-6.244			-1.249
39500.000			-6.244			-1.249
39601.000			-6.243			-1.249
39700.000			-6.242			-1.248
39800.000			-6.242			-1.248
39901.000			-6.241			-1.248
40000.000			-6.242			-1.248
40102.000			-6.242			-1.248
40201.000			-6.241			-1.248
40300.000			-6.240			-1.248
40401.000			-6.241			-1.248
40500.000			-6.240			-1.248
40600.000			-6.240			-1.248
40701.000			-6.239			-1.248
40801.000			-6.239			-1.248
40901.000			-6.239			-1.248
41001.000			-6.239			-1.248
41100.000			-6.238			-1.248
41200.000			-6.237			-1.247
41301.000			-6.236			-1.247
41400.000			-6.236			-1.247
41500.000			-6.235			-1.247
41602.000			-6.236			-1.247
41701.000			-6.235			-1.247
41800.000			-6.235			-1.247
41901.000			-6.235			-1.247
42000.000			-6.236			-1.247
42100.000			-6.235			-1.247
42201.000			-6.234			-1.247
42301.000			-6.233			-1.247
42401.000			-6.233			-1.247
42501.000			-6.233			-1.247
42600.000			-6.232			-1.246
42700.000			-6.233			-1.247
42801.000			-6.232			-1.246
42900.000			-6.232			-1.246
43000.000			-6.231			-1.246
43102.000			-6.232			-1.246
43201.000			-6.232			-1.246
43300.000			-6.230			-1.246
43400.000			-6.231			-1.246
43500.000			-6.231			-1.246
43601.000			-6.229			-1.246
43700.000			-6.230			-1.246
43800.000			-6.229			-1.246
43902.000			-6.228			-1.246
44001.000			-6.228			-1.246
44100.000			-6.228			-1.246
44201.000			-6.228			-1.246
44300.000			-6.228			-1.246
44400.000			-6.227			-1.245
44501.000			-6.227			-1.245
44600.000			-6.227			-1.245
44701.000			-6.227			-1.245
44802.000			-6.227			-1.245
44900.000			-6.227			-1.245
45000.000			-6.226			-1.245
45101.000			-6.226			-1.245
45200.000			-6.225			-1.245
45300.000			-6.225			-1.245
45402.000			-6.225			-1.245
45501.000			-6.224			-1.245
45600.000			-6.224			-1.245
45701.000			-6.224			-1.245
45800.000			-6.224			-1.245
45900.000			-6.225			-1.245
46001.000			-6.223			-1.245
46100.000			-6.224			-1.245
46201.000			-6.223			-1.245
46302.000			-6.222			-1.244
46400.000			-6.222			-1.244
46500.000			-6.222			-1.244
46600.000			-6.221			-1.244
46700.000			-6.221			-1.244
46801.000			-6.221			-1.244
46900.000			-6.220			-1.244
47001.000			-6.221			-1.244
47102.000			-6.221			-1.244
47200.000			-6.220			-1.244
47300.000			-6.220			-1.244
47401.000			-6.218			-1.244
47500.000			-6.218			-1.244
47600.000			-6.219			-1.244
47701.000			-6.219			-1.244
47801.000			-6.218			-1.244
47901.000			-6.219			-1.244
48001.000			-6.218			-1.244
48100.000			-6.217			-1.243
48200.000			-6.217			-1.243
48301.000			-6.218			-1.244
48400.000			-6.218			-1.244
48500.000			-6.217			-1.243
48602.000			-6.216			-1.243
48701.000			-6.215			-1.243
48800.000			-6.215			-1.243
48901.000			-6.215			-1.243
49000.000			-6.215			-1.243
49100.000			-6.214			-1.243
49201.000			-6.214			-1.243
49301.000			-6.214			-1.243
49401.000			-6.215			-1.243
49501.000			-6.214			-1.243
49600.000			-6.213			-1.243
49700.000			-6.214			-1.243
49800.000			-6.213			-1.243
49900.000			-6.213			-1.243
50001.000			-6.212			-1.242
50101.000			-6.213			-1.243
50201.000			-6.212			-1.242
50301.000			-6.211			-1.242
50400.000			-6.210			-1.242
50500.000			-6.211			-1.242
50601.000			-6.211			-1.242
50700.000			-6.211			-1.242
50800.000			-6.210			-1.242
50902.000			-6.210			-1.242
51001.000			-6.209			-1.242
51100.000			-6.209			-1.242
51201.000			-6.209			-1.242
51300.000			-6.208			-1.242
51400.000			-6.208			-1.242
51501.000			-6.208			-1.242
51601.000			-6.207			-1.241
51701.000			-6.208			-1.242
51801.000			-6.209			-1.242
51900.000			-6.208			-1.242
52000.000			-6.207			-1.241
52101.000			-6.206			-1.241
52200.000			-6.207			-1.241
52300.000			-6.207			-1.241
52402.000			-6.206			-1.241
52501.000			-6.205			-1.241
52600.000			-6.205			-1.241
52701.000			-6.205			-1.241
52800.000			-6.205			-1.241
52900.000			-6.204			-1.241
53000.000			-6.204			-1.241
53100.000			-6.204			-1.241
53202.000			-6.203			-1.241
53301.000			-6.203			-1.241
53400.000			-6.202			-1.240
53501.000			-6.202			-1.240
53600.000			-6.202			-1.240
53700.000			-6.201			-1.240
53801.000			-6.201			-1.240
53901.000			-6.200			-1.240
54001.000			-6.199			-1.240
54101.000			-6.200			-1.240
54200.000			-6.200			-1.240
54300.000			-6.200			-1.240
54401.000			-6.199			-1.240
54500.000			-6.199			-1.240
54600.000			-6.198			-1.240
54702.000			-6.197			-1.239
54801.000			-6.197			-1.239
54901.000			-6.196			-1.239
55001.000			-6.196			-1.239
55100.000			-6.195			-1.239
55200.000			-6.195			-1.239
55301.000			-6.196			-1.239
55400.000			-6.196			-1.239
55500.000			-6.194			-1.239
55602.000			-6.194			-1.239
55701.000			-6.194			-1.239
55800.000			-6.194			-1.239
55901.000			-6.194			-1.239
56000.000			-6.193			-1.239
56100.000			-6.191			-1.238
56200.000			-6.192			-1.238
56300.000			-6.192			-1.238
56402.000			-6.192			-1.238
56501.000			-6.192			-1.238
56600.000			-6.192			-1.238
56701.000			-6.191			-1.238
56800.000			-6.191			-1.238
56900.000			-6.191			-1.238
57001.000			-6.191			-1.238
57100.000			-6.191			-1.238
57201.000			-6.190			-1.238
57302.000			-6.189			-1.238
57400.000			-6.189			-1.238
57500.000			-6.190			-1.238
57601.000			-6.188			-1.238
57700.000			-6.189			-1.238
57800.000			-6.189			-1.238
57901.000			-6.189			-1.238
58001.000			-6.188			-1.238
58101.000			-6.188			-1.238
58201.000			-6.187			-1.237
58300.000			-6.188			-1.238
58400.000			-6.188			-1.238
58501.000			-6.188			-1.238
58600.000			-6.187			-1.237
58700.000			-6.186			-1.237
58802.000			-6.187			-1.237
58901.000			-6.188			-1.238
59000.000			-6.186			-1.237
59101.000			-6.187			-1.237
59200.000			-6.187			-1.237
59300.000			-6.187			-1.237
59400.000			-6.187			-1.237
59500.000			-6.187			-1.237
59602.000			-6.187			-1.237
59701.000			-6.187			-1.237
59800.000			-6.186			-1.237
59901.000			-6.185			-1.237
60000.000			-6.186			-1.237
60100.000			-6.186			-1.237
60201.000			-6.185			-1.237
60300.000			-6.183			-1.237
60401.000			-6.184			-1.237
60502.000			-6.185			-1.237
60600.000			-6.184			-1.237
60700.000			-6.183			-1.237
60801.000			-6.183			-1.237
60900.000			-6.183			-1.237
61000.000			-6.183			-1.237
61101.000			-6.183			-1.237
61201.000			-6.182			-1.236
61301.000			-6.183			-1.237
61401.000			-6.183			-1.237
61500.000			-6.182			-1.236
61600.000			-6.181			-1.236
61701.000			-6.181			-1.236
61800.000			-6.181			-1.236
61900.000			-6.181			-1.236
62002.000			-6.180			-1.236
62101.000			-6.180			-1.236
62200.000			-6.180			-1.236
62301.000			-6.179			-1.236
62400.000			-6.179			-1.236
62500.000			-6.179			-1.236
62600.000			-6.178			-1.236
62700.000			-6.179			-1.236
62802.000			-6.178			-1.236
62901.000			-6.177			-1.235
63000.000			-6.177			-1.235
63101.000			-6.177			-1.235
63200.000			-6.177			-1.235
63300.000			-6.177			-1.235
63401.000			-6.176			-1.235
63500.000			-6.176			-1.235
63601.000			-6.175			-1.235
63702.000			-6.174			-1.235
63800.000			-6.174			-1.235
63900.000			-6.174			-1.235
64001.000			-6.175			-1.235
64100.000			-6.174			-1.235
64200.000			-6.175			-1.235
64301.000			-6.175			-1.235
64401.000			-6.173			-1.235
64501.000			-6.172			-1.234
64601.000			-6.173			-1.235
64700.000			-6.172			-1.234
64800.000			-6.172			-1.234
64901.000			-6.173			-1.235
65000.000			-6.172			-1.234
65100.000			-6.173			-1.235
65202.000			-6.172			-1.234
65301.000			-6.172			-1.234
65400.000			-6.171			-1.234
65501.000			-6.171			-1.234
65600.000			-6.172			-1.234
65700.000			-6.171			-1.234
65800.000			-6.171			-1.234
65900.000			-6.172			-1.234
66002.000			-6.172			-1.234
66101.000			-6.172			-1.234
66200.000			-6.171			-1.234
66301.000			-6.168			-1.234
66400.000			-6.169			-1.234
66500.000			-6.169			-1.234
66601.000			-6.169			-1.234
66700.000			-6.170			-1.234
66801.000			-6.169			-1.234
66902.000			-6.169			-1.234
67000.000			-6.168			-1.234
67100.000			-6.169			-1.234
67201.000			-6.169			-1.234
67300.000			-6.169			-1.234
67400.000			-6.168			-1.234
67501.000			-6.168			-1.234
67601.000			-6.169			-1.234
67701.000			-6.167			-1.233
67801.000			-6.167			-1.233
67900.000			-6.165			-1.233
68000.000			-6.167			-1.233
68101.000			-6.168			-1.234
68200.000			-6.168			-1.234
68300.000			-6.166			-1.233
68402.000			-6.166			-1.233
68501.000			-6.166			-1.233
68601.000			-6.166			-1.233
68701.000			-6.166			-1.233
68800.000			-6.166			-1.233
68900.000			-6.164			-1.233
69000.000			-6.164			-1.233
69100.000			-6.165			-1.233
69201.000			-6.165			-1.233
69301.000			-6.165			-1.233
69401.000			-6.166			-1.233
69501.000			-6.165			-1.233
69600.000			-6.165			-1.233
69700.000			-6.165			-1.233
69801.000			-6.164			-1.233
69900.000			-6.164			-1.233
70000.000			-6.163			-1.233
70102.000			-6.163			-1.233
70201.000			-6.164			-1.233
70300.000			-6.164			-1.233
70401.000			-6.163			-1.233
70500.000			-6.163			-1.233
70600.000			-6.163			-1.233
70701.000			-6.163			-1.233
70800.000			-6.161			-1.232
70901.000			-6.161			-1.232
71002.000			-6.161			-1.232
71100.000			-6.161			-1.232
71200.000			-6.161			-1.232
71301.000			-6.161			-1.232
71400.000			-6.160			-1.232
71500.000			-6.161			-1.232
71601.000			-6.160			-1.232
71701.000			-6.160			-1.232
71801.000			-6.160			-1.232
71901.000			-6.160			-1.232
72000.000			-6.159			-1.232
72100.000			-6.158			-1.232
72200.000			-6.158			-1.232
72300.000			-6.157			-1.231
72401.000			-6.157			-1.231
72501.000			-6.158			-1.232
72601.000			-6.158			-1.232
72701.000			-6.157			-1.231
72800.000			-6.157			-1.231
72900.000			-6.157			-1.231
73001.000			-6.157			-1.231
73100.000			-6.156			-1.231
73200.000			-6.155			-1.231
73302.000			-6.156			-1.231
73401.000			-6.156			-1.231
73500.000			-6.156			-1.231
73601.000			-6.155			-1.231
73700.000			-6.155			-1.231
73800.000			-6.155			-1.231
73901.000			-6.155			-1.231
74000.000			-6.156			-1.231
74101.000			-6.155			-1.231
74202.000			-6.155			-1.231
74300.000			-6.154			-1.231
74400.000			-6.154			-1.231
74501.000			-6.153			-1.231
74600.000			-6.154			-1.231
74700.000			-6.154			-1.231
74801.000			-6.152			-1.230
74901.000			-6.153			-1.231
75001.000			-6.153			-1.231
75101.000			-6.153			-1.231
75200.000			-6.153			-1.231
75300.000			-6.153			-1.231
75400.000			-6.152			-1.230
75500.000			-6.152			-1.230
75601.000			-6.154			-1.231
75701.000			-6.152			-1.230
75801.000			-6.152			-1.230
75901.000			-6.151			-1.230
76000.000			-6.151			-1.230
76100.000			-6.151			-1.230
76201.000			-6.151			-1.230
76300.000			-6.150			-1.230
76400.000			-6.150			-1.230
76502.000			-6.150			-1.230
76601.000			-6.152			-1.230
76700.000			-6.151			-1.230
76801.000			-6.150			-1.230
76900.000			-6.151			-1.230
77000.000			-6.150			-1.230
77101.000			-6.149			-1.230
77200.000			-6.149			-1.230
77301.000			-6.150			-1.230
77402.000			-6.149			-1.230
77501.000			-6.149			-1.230
77600.000			-6.149			-1.230
77701.000			-6.149			-1.230
77800.000			-6.148			-1.230
77900.000			-6.147			-1.229
78001.000			-6.146			-1.229
78100.000			-6.146			-1.229
78201.000			-6.147			-1.229
78302.000			-6.147			-1.229
78400.000			-6.147			-1.229
78500.000			-6.147			-1.229
78600.000			-6.146			-1.229
78700.000			-6.146			-1.229
78801.000			-6.146			-1.229
78900.000			-6.145			-1.229
79001.000			-6.145			-1.229
79102.000			-6.145			-1.229
79200.000			-6.146			-1.229
79300.000			-6.146			-1.229
79401.000			-6.145			-1.229
79500.000			-6.145			-1.229
79600.000			-6.145			-1.229
79701.000			-6.144			-1.229
79801.000			-6.144			-1.229
79901.000			-6.145			-1.229
80001.000			-6.145			-1.229
80100.000			-6.143			-1.229
80200.000			-6.143			-1.229
80301.000			-6.143			-1.229
80400.000			-6.143			-1.229
80500.000			-6.143			-1.229
80602.000			-6.142			-1.228
80701.000			-6.142			-1.228
80800.000			-6.142			-1.228
80901.000			-6.142			-1.228
81000.000			-6.141			-1.228
81100.000			-6.142			-1.228
81201.000			-6.141			-1.228
81300.000			-6.140			-1.228
81401.000			-6.141			-1.228
81502.000			-6.140			-1.228
81600.000			-6.140			-1.228
81700.000			-6.141			-1.228
81800.000			-6.142			-1.228
81900.000			-6.141			-1.228
82001.000			-6.140			-1.228
82100.000			-6.140			-1.228
82201.000			-6.140			-1.228
82302.000			-6.140			-1.228
82400.000			-6.139			-1.228
82500.000			-6.138			-1.228
82601.000			-6.138			-1.228
82700.000			-6.138			-1.228
82800.000			-6.138			-1.228
82901.000			-6.138			-1.228
83001.000			-6.138			-1.228
83101.000			-6.138			-1.228
83201.000			-6.138			-1.228
83300.000			-6.138			-1.228
83400.000			-6.138			-1.228
83501.000			-6.138			-1.228
83600.000			-6.137			-1.227
83700.000			-6.138			-1.228
83802.000			-6.137			-1.227
83901.000			-6.136			-1.227
84000.000			-6.137			-1.227
84101.000			-6.137			-1.227
84200.000			-6.136			-1.227
84300.000			-6.137			-1.227
84401.000			-6.136			-1.227
84500.000			-6.135			-1.227
84601.000			-6.135			-1.227
84702.000			-6.134			-1.227
84800.000			-6.134			-1.227
84900.000			-6.134			-1.227
85000.000			-6.134			-1.227
85100.000			-6.133			-1.227
85201.000			-6.134			-1.227
85300.000			-6.134			-1.227
85401.000			-6.134			-1.227
85502.000			-6.134			-1.227
85600.000			-6.133			-1.227
85700.000			-6.133			-1.227
85801.000			-6.132			-1.226
85900.000			-6.133			-1.227
86000.000			-6.132			-1.226
86101.000			-6.132			-1.226
86201.000			-6.132			-1.226
86301.000			-6.132			-1.226
86401.000			-6.132			-1.226
86500.000			-6.132			-1.226
86600.000			-6.130			-1.226
86701.000			-6.131			-1.226
86800.000			-6.132			-1.226
86900.000			-6.133			-1.227
87002.000			-6.132			-1.226
87101.000			-6.131			-1.226
87200.000			-6.131			-1.226
87301.000			-6.130			-1.226
87400.000			-6.130			-1.226
87500.000			-6.131			-1.226
87601.000			-6.130			-1.226
87700.000			-6.130			-1.226
87801.000			-6.130			-1.226
87902.000			-6.130			-1.226
88000.000			-6.130			-1.226
88100.000			-6.129			-1.226
88200.000			-6.129			-1.226
88300.000			-6.128			-1.226
88401.000			-6.129			-1.226
88500.000			-6.130			-1.226
88601.000			-6.129			-1.226
88702.000			-6.128			-1.226
88800.000			-6.127			-1.225
88900.000			-6.127			-1.225
89001.000			-6.127			-1.225
89100.000			-6.127			-1.225
89200.000			-6.126			-1.225
89301.000			-6.127			-1.225
89401.000			-6.128			-1.226
89501.000			-6.126			-1.225
89601.000			-6.127			-1.225
89700.000			-6.127			-1.225
89800.000			-6.126			-1.225
89901.000			-6.126			-1.225
90000.000			-6.126			-1.225
90100.000			-6.125			-1.225
90201.000			-6.125			-1.225
90301.000			-6.124			-1.225
90401.000			-6.124			-1.225
90501.000			-6.124			-1.225
90600.000			-6.125			-1.225
90700.000			-6.124			-1.225
90801.000			-6.125			-1.225
90900.000			-6.124			-1.225
91000.000			-6.124			-1.225
91102.000			-6.123			-1.225
91201.000			-6.123			-1.225
91300.000			-6.125			-1.225
91400.000			-6.125			-1.225
91500.000			-6.125			-1.225
91601.000			-6.124			-1.225
91700.000			-6.124			-1.225
91800.000			-6.123			-1.225
91902.000			-6.123			-1.225
92001.000			-6.123			-1.225
92100.000			-6.122			-1.224
92201.000			-6.122			-1.224
92300.000			-6.122			-1.224
92400.000			-6.122			-1.224
92501.000			-6.121			-1.224
92601.000			-6.120			-1.224
92701.000			-6.121			-1.224
92802.000			-6.121			-1.224
92900.000			-6.121			-1.224
93000.000			-6.122			-1.224
93101.000			-6.121			-1.224
93200.000			-6.121			-1.224
93300.000			-6.120			-1.224
93402.000			-6.121			-1.224
93501.000			-6.121			-1.224
93601.000			-6.121			-1.224
93701.000			-6.120			-1.224
93800.000			-6.119			-1.224
93900.000			-6.120			-1.224
94001.000			-6.119			-1.224
94100.000			-6.120			-1.224
94200.000			-6.119			-1.224
94302.000			-6.119			-1.224
94401.000			-6.118			-1.224
94500.000			-6.119			-1.224
94600.000			-6.118			-1.224
94700.000			-6.119			-1.224
94801.000			-6.118			-1.224
94900.000			-6.118			-1.224
95000.000			-6.118			-1.224
95102.000			-6.117			-1.223
95201.000			-6.117			-1.223
95300.000			-6.118			-1.224
95401.000			-6.117			-1.223
95500.000			-6.117			-1.223
95600.000			-6.117			-1.223
95701.000			-6.117			-1.223
95800.000			-6.116			-1.223
95901.000			-6.117			-1.223
96002.000			-6.116			-1.223
96100.000			-6.117			-1.223
96200.000			-6.117			-1.223
96301.000			-6.117			-1.223
96400.000			-6.116			-1.223
96500.000			-6.116			-1.223
96601.000			-6.115			-1.223
96701.000			-6.114			-1.223
96801.000			-6.115			-1.223
96901.000			-6.115			-1.223
97000.000			-6.115			-1.223
97100.000			-6.115			-1.223
97201.000			-6.115			-1.223
97300.000			-6.116			-1.223
97400.000			-6.114			-1.223
97502.000			-6.114			-1.223
97601.000			-6.114			-1.223
97700.000			-6.113			-1.223
97800.000			-6.113			-1.223
97900.000			-6.114			-1.223
98001.000			-6.114			-1.223
98100.000			-6.113			-1.223
98200.000			-6.113			-1.223
98302.000			-6.113			-1.223
98401.000			-6.113			-1.223
98500.000			-6.113			-1.223
98601.000			-6.112			-1.222
98700.000			-6.112			-1.222
98800.000			-6.112			-1.222
98901.000			-6.114			-1.223
99000.000			-6.112			-1.222
99101.000			-6.112			-1.222
99202.000			-6.112			-1.222
99301.000			-6.112			-1.222
99400.000			-6.112			-1.222
99501.000			-6.112			-1.222
99600.000			-6.111			-1.222
99700.000			-6.110			-1.222
99801.000			-6.111			-1.222
99901.000			-6.111			-1.222
100001.000			-6.111			-1.222
100101.000			-6.111			-1.222
100200.000			-6.112			-1.222
100300.000			-6.111			-1.222
100401.000			-6.111			-1.222
100500.000			-6.110			-1.222
100600.000			-6.110			-1.222
100702.000			-6.110			-1.222
100801.000			-6.110			-1.222
100900.000			-6.109			-1.222
101000.000			-6.109			-1.222
101100.000			-6.109			-1.222
101201.000			-6.109			-1.222
101300.000			-6.109			-1.222
101400.000			-6.109			-1.222
101501.000			-6.108			-1.222
101601.000			-6.107			-1.221
101701.000			-6.109			-1.222
101801.000			-6.108			-1.222
101900.000			-6.107			-1.221
102000.000			-6.108			-1.222
102101.000			-6.108			-1.222
102200.000			-6.106			-1.221
102300.000			-6.106			-1.221
102402.000			-6.107			-1.221
102501.000			-6.106			-1.221
102600.000			-6.106			-1.221
102701.000			-6.106			-1.221
102800.000			-6.105			-1.221
102900.000			-6.106			-1.221
103001.000			-6.106			-1.221
103100.000			-6.105			-1.221
103201.000			-6.105			-1.221
103302.000			-6.104			-1.221
103401.000			-6.105			-1.221
103500.000			-6.105			-1.221
103601.000			-6.105			-1.221
103700.000			-6.105			-1.221
103800.000			-6.104			-1.221
103901.000			-6.104			-1.221
104001.000			-6.104			-1.221
104102.000			-6.104			-1.221
104201.000			-6.103			-1.221
104300.000			-6.103			-1.221
104401.000			-6.103			-1.221
104500.000			-6.102			-1.220
104600.000			-6.103			-1.221
104701.000			-6.103			-1.221
104801.000			-6.103			-1.221
104901.000			-6.103			-1.221
105002.000			-6.103			-1.221
105100.000			-6.103			-1.221
105200.000			-6.102			-1.220
105301.000			-6.103			-1.221
105400.000			-6.102			-1.220
105500.000			-6.102			-1.220
105602.000			-6.102			-1.220
105701.000			-6.102			-1.220
105801.000			-6.103			-1.221
105901.000			-6.102			-1.220
106000.000			-6.101			-1.220
106100.000			-6.102			-1.220
106201.000			-6.101			-1.220
106300.000			-6.102			-1.220
106401.000			-6.102			-1.220
106502.000			-6.100			-1.220
106601.000			-6.101			-1.220
106700.000			-6.101			-1.220
106801.000			-6.100			-1.220
106900.000			-6.100			-1.220
107000.000			-6.100			-1.220
107101.000			-6.100			-1.220
107200.000			-6.100			-1.220
107302.000			-6.099			-1.220
107401.000			-6.099			-1.220
107500.000			-6.098			-1.220
107601.000			-6.099			-1.220
107700.000			-6.098			-1.220
107800.000			-6.098			-1.220
107901.000			-6.098			-1.220
108000.000			-6.099			-1.220
108101.000			-6.098			-1.220
108202.000			-6.097			-1.219
108301.000			-6.097			-1.219
108400.000			-6.098			-1.220
108501.000			-6.099			-1.220
108600.000			-6.098			-1.220
108700.000			-6.097			-1.219
108801.000			-6.097			-1.219
108900.000			-6.097			-1.219
109001.000			-6.097			-1.219
109102.000			-6.097			-1.219
109200.000			-6.096			-1.219
109300.000			-6.097			-1.219
109401.000			-6.098			-1.220
109500.000			-6.096			-1.219
109600.000			-6.097			-1.219
109701.000			-6.098			-1.220
109800.000			-6.097			-1.219
109901.000			-6.096			-1.219
110002.000			-6.096			-1.219
110100.000			-6.096			-1.219
110200.000			-6.095			-1.219
110301.000			-6.096			-1.219
110400.000			-6.095			-1.219
110500.000			-6.094			-1.219
110600.000			-6.094			-1.219
110701.000			-6.094			-1.219
110802.000			-6.094			-1.219
110900.000			-6.094			-1.219
111000.000			-6.094			-1.219
111101.000			-6.093			-1.219
111200.000			-6.093			-1.219
111300.000			-6.094			-1.219
111401.000			-6.093			-1.219
111501.000			-6.093			-1.219
111601.000			-6.093			-1.219
111702.000			-6.093			-1.219
111800.000			-6.093			-1.219
111900.000			-6.093			-1.219
112001.000			-6.093			-1.219
112100.000			-6.093			-1.219
112200.000			-6.093			-1.219
112301.000			-6.091			-1.218
112401.000			-6.091			-1.218
112501.000			-6.092			-1.218
112601.000			-6.092			-1.218
112700.000			-6.092			-1.218
112800.000			-6.090			-1.218
112901.000			-6.091			-1.218
113000.000			-6.091			-1.218
113100.000			-6.090			-1.218
113202.000			-6.090			-1.218
113301.000			-6.090			-1.218
113400.000			-6.090			-1.218
113501.000			-6.091			-1.218
113600.000			-6.090			-1.218
113700.000			-6.090			-1.218
113800.000			-6.090			-1.218
113900.000			-6.090			-1.218
114002.000			-6.090			-1.218
114101.000			-6.089			-1.218
114200.000			-6.090			-1.218
114301.000			-6.089			-1.218
114400.000			-6.089			-1.218
114500.000			-6.089			-1.218
114601.000			-6.089			-1.218
114700.000			-6.089			-1.218
114800.000			-6.089			-1.218
114902.000			-6.088			-1.218
115001.000			-6.087			-1.217
115100.000			-6.087			-1.217
115201.000			-6.088			-1.218
115300.000			-6.088			-1.218
115400.000			-6.087			-1.217
115501.000			-6.087			-1.217
115600.000			-6.087			-1.217
115701.000			-6.087			-1.217
115802.000			-6.087			-1.217
115900.000			-6.086			-1.217
116000.000			-6.087			-1.217
116101.000			-6.087			-1.217
116200.000			-6.087			-1.217
116300.000			-6.086			-1.217
116401.000			-6.086			-1.217
116501.000			-6.087			-1.217
116601.000			-6.086			-1.217
116702.000			-6.086			-1.217
116800.000			-6.086			-1.217
116900.000			-6.086			-1.217
117000.000			-6.085			-1.217
117100.000			-6.085			-1.217
117201.000			-6.085			-1.217
117300.000			-6.084			-1.217
117401.000			-6.085			-1.217
117502.000			-6.086			-1.217
117600.000			-6.086			-1.217
117700.000			-6.085			-1.217
117801.000			-6.085			-1.217
117900.000			-6.085			-1.217
118000.000			-6.085			-1.217
118101.000			-6.085			-1.217
118201.000			-6.085			-1.217
118301.000			-6.085			-1.217
118402.000			-6.084			-1.217
118500.000			-6.084			-1.217
118600.000			-6.085			-1.217
118701.000			-6.084			-1.217
118800.000			-6.084			-1.217
118900.000			-6.084			-1.217
119001.000			-6.084			-1.217
119101.000			-6.084			-1.217
119201.000			-6.084			-1.217
119301.000			-6.084			-1.217
119400.000			-6.083			-1.217
119500.000			-6.083			-1.217
119601.000			-6.084			-1.217
119700.000			-6.083			-1.217
119800.000			-6.083			-1.217
119902.000			-6.082			-1.216
120001.000			-6.082			-1.216
120100.000			-6.082			-1.216
120200.000			-6.082			-1.216
120300.000			-6.082			-1.216
120401.000			-6.083			-1.217
120500.000			-6.083			-1.217
120600.000			-6.082			-1.216
120701.000			-6.082			-1.216
120801.000			-6.082			-1.216
120901.000			-6.082			-1.216
121001.000			-6.082			-1.216
121100.000			-6.081			-1.216
121200.000			-6.082			-1.216
121301.000			-6.082			-1.216
121400.000			-6.081			-1.216
121500.000			-6.081			-1.216
121602.000			-6.080			-1.216
121701.000			-6.081			-1.216
121800.000			-6.081			-1.216
121901.000			-6.080			-1.216
122000.000			-6.080			-1.216
122100.000			-6.080			-1.216
122201.000			-6.080			-1.216
122300.000			-6.080			-1.216
122401.000			-6.080			-1.216
122502.000			-6.081			-1.216
122600.000			-6.081			-1.216
122700.000			-6.081			-1.216
122801.000			-6.081			-1.216
122900.000			-6.080			-1.216
123000.000			-6.081			-1.216
123101.000			-6.080			-1.216
123200.000			-6.080			-1.216
123302.000			-6.079			-1.216
123401.000			-6.078			-1.216
123500.000			-6.080			-1.216
123601.000			-6.080			-1.216
123700.000			-6.080			-1.216
123800.000			-6.080			-1.216
123901.000			-6.079			-1.216
124000.000			-6.078			-1.216
124101.000			-6.079			-1.216
124202.000			-6.079			-1.216
124301.000			-6.078			-1.216
124400.000			-6.078			-1.216
124501.000			-6.078			-1.216
124600.000			-6.079			-1.216
124700.000			-6.078			-1.216
124801.000			-6.078			-1.216
124900.000			-6.077			-1.215
125001.000			-6.077			-1.215
125102.000			-6.077			-1.215
125200.000			-6.077			-1.215
125300.000			-6.077			-1.215
125401.000			-6.077			-1.215
125500.000			-6.078			-1.216
125600.000			-6.077			-1.215
125701.000			-6.077			-1.215
125801.000			-6.077			-1.215
125901.000			-6.077			-1.215
126001.000			-6.077			-1.215
126100.000			-6.077			-1.215
126200.000			-6.076			-1.215
126301.000			-6.077			-1.215
126400.000			-6.077			-1.215
126500.000			-6.077			-1.215
126600.000			-6.075			-1.215
126701.000			-6.075			-1.215
126802.000			-6.076			-1.215
126900.000			-6.075			-1.215
127000.000			-6.075			-1.215
127101.000			-6.075			-1.215
127200.000			-6.075			-1.215
127300.000			-6.075			-1.215
127401.000			-6.075			-1.215
127501.000			-6.074			-1.215
127601.000			-6.074			-1.215
127701.000			-6.075			-1.215
127800.000			-6.074			-1.215
127900.000			-6.075			-1.215
128001.000			-6.074			-1.215
128100.000			-6.073			-1.215
128200.000			-6.073			-1.215
128301.000			-6.074			-1.215
128401.000			-6.074			-1.215
128501.000			-6.073			-1.215
128601.000			-6.073			-1.215
128700.000			-6.072			-1.214
128800.000			-6.073			-1.215
128901.000			-6.072			-1.214
129000.000			-6.072			-1.214
129100.000			-6.071			-1.214
129202.000			-6.072			-1.214
129301.000			-6.073			-1.215
129400.000			-6.072			-1.214
129501.000			-6.072			-1.214
129600.000			-6.072			-1.214
129700.000			-6.073			-1.215
129800.000			-6.072			-1.214
129900.000			-6.072			-1.214
130001.000			-6.072			-1.214
130101.000			-6.072			-1.214
130201.000			-6.071			-1.214
130301.000			-6.072			-1.214
130400.000			-6.071			-1.214
130500.000			-6.071			-1.214
130601.000			-6.071			-1.214
130700.000			-6.072			-1.214
130800.000			-6.071			-1.214
130902.000			-6.071			-1.214
131001.000			-6.071			-1.214
131100.000			-6.071			-1.214
131201.000			-6.070			-1.214
131300.000			-6.071			-1.214
131400.000			-6.071			-1.214
131501.000			-6.071			-1.214
131600.000			-6.070			-1.214
131701.000			-6.070			-1.214
131802.000			-6.069			-1.214
131901.000			-6.069			-1.214
132000.000			-6.070			-1.214
132101.000			-6.070			-1.214
132200.000			-6.070			-1.214
132300.000			-6.070			-1.214
132401.000			-6.069			-1.214
132500.000			-6.069			-1.214
132601.000			-6.069			-1.214
132702.000			-6.068			-1.214
132801.000			-6.068			-1.214
132900.000			-6.069			-1.214
133000.000			-6.069			-1.214
133100.000			-6.069			-1.214
133201.000			-6.067			-1.213
133300.000			-6.068			-1.214
133400.000			-6.069			-1.214
133501.000			-6.069			-1.214
133601.000			-6.068			-1.214
133701.000			-6.067			-1.213
133801.000			-6.068			-1.214
133900.000			-6.067			-1.213
134000.000			-6.067			-1.213
134101.000			-6.067			-1.213
134200.000			-6.066			-1.213
134300.000			-6.067			-1.213
134401.000			-6.067			-1.213
134501.000			-6.068			-1.214
134601.000			-6.066			-1.213
134701.000			-6.066			-1.213
134800.000			-6.067			-1.213
134900.000			-6.067			-1.213
135001.000			-6.066			-1.213
135100.000			-6.067			-1.213
135200.000			-6.067			-1.213
135301.000			-6.065			-1.213
135401.000			-6.066			-1.213
135501.000			-6.066			-1.213
135601.000			-6.066			-1.213
135700.000			-6.065			-1.213
135800.000			-6.066			-1.213
135901.000			-6.065			-1.213
136000.000			-6.066			-1.213
136100.000			-6.066			-1.213
136200.000			-6.065			-1.213
136301.000			-6.065			-1.213
136402.000			-6.065			-1.213
136500.000			-6.064			-1.213
136600.000			-6.063			-1.213
136701.000			-6.064			-1.213
136800.000			-6.064			-1.213
136900.000			-6.064			-1.213
137001.000			-6.063			-1.213
137100.000			-6.063			-1.213
137201.000			-6.064			-1.213
137302.000			-6.064			-1.213
137400.000			-6.063			-1.213
137500.000			-6.064			-1.213
137601.000			-6.063			-1.213
137700.000			-6.063			-1.213
137800.000			-6.063			-1.213
137901.000			-6.063			-1.213
138000.000			-6.062			-1.212
138101.000			-6.062			-1.212
138202.000			-6.062			-1.212
138301.000			-6.062			-1.212
138400.000			-6.063			-1.213
138501.000			-6.063			-1.213
138600.000			-6.063			-1.213
138700.000			-6.061			-1.212
138801.000			-6.062			-1.212
138900.000			-6.062			-1.212
139001.000			-6.061			-1.212
139102.000			-6.061			-1.212
139201.000			-6.062			-1.212
139300.000			-6.062			-1.212
139400.000			-6.061			-1.212
139500.000			-6.060			-1.212
139601.000			-6.060			-1.212
139700.000			-6.060			-1.212
139800.000			-6.060			-1.212
139902.000			-6.060			-1.212
140001.000			-6.060			-1.212
140101.000			-6.060			-1.212
140201.000			-6.059			-1.212
140300.000			-6.060			-1.212
140400.000			-6.060			-1.212
140501.000			-6.059			-1.212
140600.000			-6.060			-1.212
140700.000			-6.060			-1.212
140802.000			-6.059			-1.212
140901.000			-6.059			-1.212
141001.000			-6.059			-1.212
141101.000			-6.059			-1.212
141200.000			-6.059			-1.212
141300.000			-6.059			-1.212
141401.000			-6.058			-1.212
141500.000			-6.059			-1.212
141600.000			-6.059			-1.212
141702.000			-6.058			-1.212
141801.000			-6.058			-1.212
141901.000			-6.059			-1.212
142001.000			-6.058			-1.212
142100.000			-6.058			-1.212
142200.000			-6.057			-1.211
142301.000			-6.057			-1.211
142400.000			-6.057			-1.211
142500.000			-6.057			-1.211
142602.000			-6.056			-1.211
142701.000			-6.056			-1.211
142802.000			-6.057			-1.211
142900.000			-6.057			-1.211
143000.000			-6.056			-1.211
143101.000			-6.056			-1.211
143200.000			-6.055			-1.211
143300.000			-6.056			-1.211
143401.000			-6.057			-1.211
143500.000			-6.057			-1.211
143601.000			-6.056			-1.211
143702.000			-6.056			-1.211
143800.000			-6.056			-1.211
143900.000			-6.056			-1.211
144001.000			-6.056			-1.211
144100.000			-6.055			-1.211
144200.000			-6.055			-1.211
144301.000			-6.056			-1.211
144401.000			-6.055			-1.211
144501.000			-6.055			-1.211
144602.000			-6.056			-1.211
144700.000			-6.055			-1.211
144800.000			-6.056			-1.211
144901.000			-6.056			-1.211
145000.000			-6.055			-1.211
145100.000			-6.055			-1.211
145201.000			-6.055			-1.211
145301.000			-6.056			-1.211
145401.000			-6.055			-1.211
145502.000			-6.054			-1.211
145600.000			-6.053			-1.211
145700.000			-6.054			-1.211
145800.000			-6.054			-1.211
145900.000			-6.054			-1.211
146001.000			-6.054			-1.211
146100.000			-6.054			-1.211
146200.000			-6.053			-1.211
146302.000			-6.053			-1.211
146401.000			-6.053			-1.211
146500.000			-6.053			-1.211
146601.000			-6.053			-1.211
146700.000			-6.053			-1.211
146800.000			-6.053			-1.211
146901.000			-6.054			-1.211
147000.000			-6.053			-1.211
147100.000			-6.053			-1.211
147202.000			-6.053			-1.211
147301.000			-6.053			-1.211
147401.000			-6.052			-1.210
147501.000			-6.053			-1.211
147600.000			-6.052			-1.210
147700.000			-6.052			-1.210
147801.000			-6.052			-1.210
147900.000			-6.053			-1.211
148000.000			-6.052			-1.210
148102.000			-6.051			-1.210
148201.000			-6.052			-1.210
148301.000			-6.051			-1.210
148401.000			-6.052			-1.210
148500.000			-6.052			-1.210
148600.000			-6.052			-1.210
148701.000			-6.051			-1.210
148800.000			-6.051			-1.210
148900.000			-6.052			-1.210
149002.000			-6.052			-1.210
149101.000			-6.050			-1.210
149202.000			-6.049			-1.210
149300.000			-6.050			-1.210
149400.000			-6.050			-1.210
149501.000			-6.050			-1.210
149600.000			-6.050			-1.210
149700.000			-6.050			-1.210
149801.000			-6.050			-1.210
149901.000			-6.050			-1.210
150001.000			-6.050			-1.210
150102.000			-6.050			-1.210
150200.000			-6.050			-1.210
150300.000			-6.048			-1.210
150401.000			-6.048			-1.210
150500.000			-6.049			-1.210
150600.000			-6.049			-1.210
150701.000			-6.049			-1.210
150801.000			-6.048			-1.210
150901.000			-6.048			-1.210
151002.000			-6.049			-1.210
151100.000			-6.049			-1.210
151200.000			-6.048			-1.210
151301.000			-6.049			-1.210
151400.000			-6.049			-1.210
151500.000			-6.048			-1.210
151601.000			-6.047			-1.209
151701.000			-6.048			-1.210
151801.000			-6.048			-1.210
151902.000			-6.048			-1.210
152000.000			-6.047			-1.209
152100.000			-6.047			-1.209
152200.000			-6.048			-1.210
152300.000			-6.047			-1.209
152401.000			-6.047			-1.209
152500.000			-6.047			-1.209
152600.000			-6.048			-1.210
152702.000			-6.048			-1.210
152801.000			-6.047			-1.209
152900.000			-6.046			-1.209
153001.000			-6.046			-1.209
153100.000			-6.046			-1.209
153200.000			-6.046			-1.209
153301.000			-6.046			-1.209
153400.000			-6.046			-1.209
153501.000			-6.046			-1.209
153602.000			-6.046			-1.209
153701.000			-6.046			-1.209
153800.000			-6.047			-1.209
153901.000			-6.046			-1.209
154000.000			-6.045			-1.209
154100.000			-6.045			-1.209
154201.000			-6.045			-1.209
154300.000			-6.046			-1.209
154401.000			-6.045			-1.209
154502.000			-6.045			-1.209
154601.000			-6.046			-1.209
154700.000			-6.046			-1.209
154801.000			-6.045			-1.209
154900.000			-6.044			-1.209
155000.000			-6.044			-1.209
155101.000			-6.044			-1.209
155200.000			-6.045			-1.209
155300.000			-6.044			-1.209
155402.000			-6.044			-1.209
155501.000			-6.044			-1.209
155601.000			-6.044			-1.209
155700.000			-6.043			-1.209
155800.000			-6.044			-1.209
155901.000			-6.044			-1.209
156000.000			-6.043			-1.209
156100.000			-6.043			-1.209
156202.000			-6.043			-1.209
156301.000			-6.043			-1.209
156401.000			-6.042			-1.208
156501.000			-6.043			-1.209
156600.000			-6.043			-1.209
156700.000			-6.043			-1.209
156801.000			-6.043			-1.209
156900.000			-6.044			-1.209
157000.000			-6.043			-1.209
157101.000			-6.041			-1.208
157201.000			-6.041			-1.208
157301.000			-6.041			-1.208
157401.000			-6.042			-1.208
157500.000			-6.042			-1.208
157600.000			-6.042			-1.208
157701.000			-6.042			-1.208
157800.000			-6.041			-1.208
157900.000			-6.041			-1.208
158001.000			-6.041			-1.208
158101.000			-6.042			-1.208
158201.000			-6.041			-1.208
158301.000			-6.040			-1.208
158400.000			-6.041			-1.208
158500.000			-6.041			-1.208
158600.000			-6.041			-1.208
158700.000			-6.042			-1.208
158801.000			-6.042			-1.208
158900.000			-6.042			-1.208
159001.000			-6.042			-1.208
159102.000			-6.041			-1.208
159200.000			-6.041			-1.208
159300.000			-6.040			-1.208
159401.000			-6.040			-1.208
159500.000			-6.040			-1.208
159600.000			-6.040			-1.208
159701.000			-6.039			-1.208
159800.000			-6.040			-1.208
159901.000			-6.041			-1.208
160002.000			-6.040			-1.208
160100.000			-6.039			-1.208
160200.000			-6.039			-1.208
160301.000			-6.039			-1.208
160400.000			-6.039			-1.208
160500.000			-6.039			-1.208
160601.000			-6.039			-1.208
160700.000			-6.040			-1.208
160801.000			-6.039			-1.208
160902.000			-6.040			-1.208
161001.000			-6.038			-1.208
161100.000			-6.039			-1.208
161201.000			-6.039			-1.208
161300.000			-6.038			-1.208
161400.000			-6.037			-1.207
161501.000			-6.037			-1.207
161600.000			-6.037			-1.207
161702.000			-6.038			-1.208
161801.000			-6.038			-1.208
161901.000			-6.038			-1.208
162001.000			-6.037			-1.207
162100.000			-6.037			-1.207
162200.000			-6.036			-1.207
162301.000			-6.037			-1.207
162400.000			-6.038			-1.208
162500.000			-6.038			-1.208
162602.000			-6.037			-1.207
162701.000			-6.038			-1.208
162801.000			-6.037			-1.207
162901.000			-6.036			-1.207
163000.000			-6.036			-1.207
163100.000			-6.036			-1.207
163201.000			-6.036			-1.207
163300.000			-6.036			-1.207
163400.000			-6.037			-1.207
163502.000			-6.036			-1.207
163601.000			-6.035			-1.207
163701.000			-6.035			-1.207
163801.000			-6.035			-1.207
163900.000			-6.035			-1.207
164000.000			-6.035			-1.207
164101.000			-6.036			-1.207
164200.000			-6.036			-1.207
164300.000			-6.034			-1.207
164402.000			-6.035			-1.207
164501.000			-6.035			-1.207
164601.000			-6.035			-1.207
164701.000			-6.034			-1.207
164800.000			-6.034			-1.207
164900.000			-6.035			-1.207
165000.000			-6.035			-1.207
165100.000			-6.035			-1.207
165201.000			-6.036			-1.207
165301.000			-6.035			-1.207
165401.000			-6.034			-1.207
165502.000			-6.035			-1.207
165600.000			-6.035			-1.207
165700.000			-6.035			-1.207
165801.000			-6.034			-1.207
165900.000			-6.033			-1.207
166000.000			-6.032			-1.206
166101.000			-6.033			-1.207
166200.000			-6.033			-1.207
166301.000			-6.033			-1.207
166402.000			-6.033			-1.207
166500.000			-6.033			-1.207
166600.000			-6.034			-1.207
166701.000			-6.033			-1.207
166800.000			-6.033			-1.207
166900.000			-6.032			-1.206
167001.000			-6.031			-1.206
167100.000			-6.032			-1.206
167201.000			-6.032			-1.206
167302.000			-6.032			-1.206
167400.000			-6.032			-1.206
167500.000			-6.031			-1.206
167601.000			-6.032			-1.206
167700.000			-6.032			-1.206
167800.000			-6.031			-1.206
167901.000			-6.032			-1.206
168000.000			-6.032			-1.206
168102.000			-6.032			-1.206
168201.000			-6.032			-1.206
168300.000			-6.031			-1.206
168401.000			-6.031			-1.206
168500.000			-6.031			-1.206
168600.000			-6.032			-1.206
168701.000			-6.031			-1.206
168800.000			-6.032			-1.206
168900.000			-6.032			-1.206
169002.000			-6.031			-1.206
169101.000			-6.030			-1.206
169200.000			-6.031			-1.206
169301.000			-6.031			-1.206
169400.000			-6.031			-1.206
169500.000			-6.031			-1.206
169601.000			-6.032			-1.206
169700.000			-6.032			-1.206
169800.000			-6.031			-1.206
169902.000			-6.030			-1.206
170001.000			-6.030			-1.206
170101.000			-6.029			-1.206
170201.000			-6.029			-1.206
170300.000			-6.030			-1.206
170400.000			-6.030			-1.206
170501.000			-6.030			-1.206
170600.000			-6.029			-1.206
170700.000			-6.029			-1.206
170802.000			-6.029			-1.206
170901.000			-6.029			-1.206
171001.000			-6.028			-1.206
171101.000			-6.029			-1.206
171200.000			-6.029			-1.206
171300.000			-6.028			-1.206
171400.000			-6.029			-1.206
171500.000			-6.029			-1.206
171601.000			-6.028			-1.206
171701.000			-6.027			-1.205
171801.000			-6.029			-1.206
171902.000			-6.029			-1.206
172000.000			-6.028			-1.206
172100.000			-6.028			-1.206
172201.000			-6.028			-1.206
172300.000			-6.028			-1.206
172400.000			-6.028			-1.206
172501.000			-6.028			-1.206
172601.000			-6.027			-1.205
172701.000			-6.027			-1.205
172802.000			-6.028			-1.206
172900.000			-6.027			-1.205
173000.000			-6.027			-1.205
173101.000			-6.027			-1.205
173200.000			-6.027			-1.205
173300.000			-6.027			-1.205
173401.000			-6.027			-1.205
173501.000			-6.026			-1.205
173601.000			-6.027			-1.205
173702.000			-6.028			-1.206
173800.000			-6.026			-1.205
173900.000			-6.025			-1.205
174001.000			-6.025			-1.205
174100.000			-6.025			-1.205
174200.000			-6.026			-1.205
174301.000			-6.026			-1.205
174400.000			-6.026			-1.205
174502.000			-6.026			-1.205
174601.000			-6.025			-1.205
174700.000			-6.025			-1.205
174801.000			-6.025			-1.205
174900.000			-6.025			-1.205
175000.000			-6.025			-1.205
175101.000			-6.025			-1.205
175200.000			-6.026			-1.205
175300.000			-6.026			-1.205
175402.000			-6.025			-1.205
175501.000			-6.025			-1.205
175600.000			-6.025			-1.205
175701.000			-6.025			-1.205
175800.000			-6.025			-1.205
175900.000			-6.025			-1.205
176001.000			-6.025			-1.205
176100.000			-6.025			-1.205
176200.000			-6.025			-1.205
176302.000			-6.025			-1.205
176401.000			-6.024			-1.205
176500.000			-6.024			-1.205
176601.000			-6.024			-1.205
176700.000			-6.024			-1.205
176800.000			-6.024			-1.205
176901.000			-6.024			-1.205
177000.000			-6.023			-1.205
177100.000			-6.023			-1.205
177202.000			-6.024			-1.205
177301.000			-6.024			-1.205
177400.000			-6.022			-1.204
177501.000			-6.023			-1.205
177600.000			-6.023			-1.205
177700.000			-6.022			-1.204
177800.000			-6.021			-1.204
177900.000			-6.023			-1.205
178001.000			-6.022			-1.204
178101.000			-6.023			-1.205
178201.000			-6.021			-1.204
178302.000			-6.022			-1.204
178400.000			-6.022			-1.204
178500.000			-6.021			-1.204
178601.000			-6.022			-1.204
178700.000			-6.022			-1.204
178800.000			-6.022			-1.204
178901.000			-6.023			-1.205
179001.000			-6.021			-1.204
179101.000			-6.021			-1.204
179202.000			-6.022			-1.204
179300.000			-6.023			-1.205
179400.000			-6.021			-1.204
179501.000			-6.021			-1.204
179600.000			-6.021			-1.204
179700.000			-6.020			-1.204
179801.000			-6.020			-1.204
179901.000			-6.020			-1.204
180001.000			-6.020			-1.204
180102.000			-6.022			-1.204
180200.000			-6.022			-1.204
180300.000			-6.020			-1.204
180401.000			-6.021			-1.204
180500.000			-6.022			-1.204
180600.000			-6.021			-1.204
180701.000			-6.021			-1.204
180801.000			-6.021			-1.204
180902.000			-6.021			-1.204
181001.000			-6.021			-1.204
181100.000			-6.019			-1.204
181201.000			-6.020			-1.204
181300.000			-6.020			-1.204
181400.000			-6.020			-1.204
181501.000			-6.019			-1.204
181600.000			-6.020			-1.204
181701.000			-6.020			-1.204
181802.000			-6.019			-1.204
181901.000			-6.020			-1.204
182000.000			-6.019			-1.204
182101.000			-6.019			-1.204
182200.000			-6.020			-1.204
182300.000			-6.020			-1.204
182401.000			-6.020			-1.204
182500.000			-6.019			-1.204
182601.000			-6.019			-1.204
182702.000			-6.019			-1.204
182801.000			-6.018			-1.204
182900.000			-6.018			-1.204
183001.000			-6.018			-1.204
183100.000			-6.019			-1.204
183200.000			-6.018			-1.204
183301.000			-6.018			-1.204
183400.000			-6.018			-1.204
183501.000			-6.018			-1.204
183602.000			-6.018			-1.204
183701.000			-6.018			-1.204
183800.000			-6.019			-1.204
183901.000			-6.018			-1.204
184000.000			-6.018			-1.204
184100.000			-6.018			-1.204
184200.000			-6.018			-1.204
184300.000			-6.017			-1.203
184401.000			-6.017			-1.203
184501.000			-6.017			-1.203
184601.000			-6.017			-1.203
184701.000			-6.018			-1.204
184800.000			-6.017			-1.203
184900.000			-6.017			-1.203
185001.000			-6.017			-1.203
185100.000			-6.017			-1.203
185200.000			-6.016			-1.203
185301.000			-6.016			-1.203
185401.000			-6.016			-1.203
185501.000			-6.016			-1.203
185601.000			-6.017			-1.203
185700.000			-6.017			-1.203
185800.000			-6.016			-1.203
185901.000			-6.016			-1.203
186000.000			-6.016			-1.203
186100.000			-6.017			-1.203
186201.000			-6.016			-1.203
186301.000			-6.015			-1.203
186401.000			-6.016			-1.203
186501.000			-6.014			-1.203
186600.000			-6.015			-1.203
186700.000			-6.016			-1.203
186801.000			-6.016			-1.203
186900.000			-6.015			-1.203
187000.000			-6.015			-1.203
187101.000			-6.015			-1.203
187201.000			-6.015			-1.203
187302.000			-6.015			-1.203
187400.000			-6.015			-1.203
187500.000			-6.016			-1.203
187601.000			-6.015			-1.203
187700.000			-6.014			-1.203
187800.000			-6.013			-1.203
187901.000			-6.014			-1.203
188000.000			-6.014			-1.203
188101.000			-6.014			-1.203
188202.000			-6.014			-1.203
188301.000			-6.014			-1.203
188400.000			-6.014			-1.203
188501.000			-6.013			-1.203
188600.000			-6.013			-1.203
188700.000			-6.013			-1.203
188801.000			-6.013			-1.203
188900.000			-6.014			-1.203
189000.000			-6.013			-1.203
189102.000			-6.014			-1.203
189201.000			-6.013			-1.203
189300.000			-6.012			-1.202
189401.000			-6.013			-1.203
189500.000			-6.014			-1.203
189600.000			-6.013			-1.203
189701.000			-6.012			-1.202
189800.000			-6.012			-1.202
189900.000			-6.012			-1.202
190002.000			-6.012			-1.202
190101.000			-6.012			-1.202
190200.000			-6.011			-1.202
190301.000			-6.012			-1.202
190400.000			-6.012			-1.202
190500.000			-6.012			-1.202
190600.000			-6.012			-1.202
190700.000			-6.011			-1.202
190802.000			-6.011			-1.202
190901.000			-6.011			-1.202
191001.000			-6.012			-1.202
191101.000			-6.012			-1.202
191200.000			-6.012			-1.202
191300.000			-6.012			-1.202
191401.000			-6.011			-1.202
191500.000			-6.012			-1.202
191600.000			-6.012			-1.202
191702.000			-6.012			-1.202
191801.000			-6.011			-1.202
191901.000			-6.011			-1.202
192001.000			-6.010			-1.202
192100.000			-6.010			-1.202
192200.000			-6.011			-1.202
192301.000			-6.011			-1.202
192400.000			-6.011			-1.202
192500.000			-6.011			-1.202
192602.000			-6.010			-1.202
192701.000			-6.011			-1.202
192800.000			-6.011			-1.202
192901.000			-6.011			-1.202
193000.000			-6.011			-1.202
193100.000			-6.011			-1.202
193201.000			-6.010			-1.202
193300.000			-6.010			-1.202
193400.000			-6.010			-1.202
193502.000			-6.009			-1.202
193601.000			-6.008			-1.202
193700.000			-6.009			-1.202
193800.000			-6.010			-1.202
193900.000			-6.010			-1.202
194001.000			-6.009			-1.202
194100.000			-6.009			-1.202
194200.000			-6.009			-1.202
194301.000			-6.008			-1.202
194401.000			-6.009			-1.202
194501.000			-6.009			-1.202
194602.000			-6.010			-1.202
194700.000			-6.009			-1.202
194800.000			-6.008			-1.202
194901.000			-6.007			-1.201
195000.000			-6.008			-1.202
195100.000			-6.009			-1.202
195201.000			-6.007			-1.201
195300.000			-6.008			-1.202
195401.000			-6.009			-1.202
195502.000			-6.008			-1.202
195600.000			-6.007			-1.201
195700.000			-6.008			-1.202
195801.000			-6.008			-1.202
195900.000			-6.009			-1.202
196000.000			-6.009			-1.202
196101.000			-6.008			-1.202
196200.000			-6.007			-1.201
196301.000			-6.007			-1.201
196402.000			-6.008			-1.202
196501.000			-6.007			-1.201
196600.000			-6.007			-1.201
196701.000			-6.009			-1.202
196800.000			-6.008			-1.202
196900.000			-6.007			-1.201
197000.000			-6.007			-1.201
197100.000			-6.007			-1.201
197202.000			-6.007			-1.201
197301.000			-6.007			-1.201
197401.000			-6.007			-1.201
197501.000			-6.006			-1.201
197600.000			-6.007			-1.201
197700.000			-6.007			-1.201
197801.000			-6.007			-1.201
197900.000			-6.006			-1.201
198000.000			-6.007			-1.201
198101.000			-6.006			-1.201
198201.000			-6.006			-1.201
198301.000			-6.006			-1.201
198401.000			-6.007			-1.201
198500.000			-6.007			-1.201
198600.000			-6.006			-1.201
198701.000			-6.005			-1.201
198800.000			-6.005			-1.201
198900.000			-6.005			-1.201
199001.000			-6.006			-1.201
199101.000			-6.006			-1.201
199201.000			-6.005			-1.201
199301.000			-6.005			-1.201
199400.000			-6.006			-1.201
199500.000			-6.006			-1.201
199601.000			-6.005			-1.201
199700.000			-6.004			-1.201
199800.000			-6.005			-1.201
199901.000			-6.005			-1.201
200001.000			-6.005			-1.201
200102.000			-6.006			-1.201
200201.000			-6.005			-1.201
200300.000			-6.005			-1.201
200401.000			-6.005			-1.201
200500.000			-6.005			-1.201
200600.000			-6.004			-1.201
200701.000			-6.005			-1.201
200800.000			-6.005			-1.201
200901.000			-6.005			-1.201
201002.000			-6.004			-1.201
201100.000			-6.003			-1.201
201200.000			-6.004			-1.201
201301.000			-6.004			-1.201
201400.000			-6.004			-1.201
201500.000			-6.003			-1.201
201601.000			-6.004			-1.201
201701.000			-6.003			-1.201
201801.000			-6.003			-1.201
201901.000			-6.003			-1.201
202000.000			-6.003			-1.201
202100.000			-6.003			-1.201
202201.000			-6.003			-1.201
202300.000			-6.002			-1.200
202400.000			-6.003			-1.201
202501.000			-6.003			-1.201
202601.000			-6.003			-1.201
202701.000			-6.002			-1.200
202801.000			-6.003			-1.201
202900.000			-6.002			-1.200
203000.000			-6.002			-1.200
203101.000			-6.003			-1.201
203200.000			-6.002			-1.200
203300.000			-6.003			-1.201
203402.000			-6.003			-1.201
203501.000			-6.002			-1.200
203601.000			-6.002			-1.200
203700.000			-6.002			-1.200
203800.000			-6.002			-1.200
203901.000			-6.002			-1.200
204000.000			-6.003			-1.201
204100.000			-6.002			-1.200
204201.000			-6.002			-1.200
204301.000			-6.001			-1.200
204401.000			-6.001			-1.200
204501.000			-6.001			-1.200
204600.000			-6.001			-1.200
204700.000			-6.000			-1.200
204801.000			-6.000			-1.200
204900.000			-6.001			-1.200
205000.000			-6.000			-1.200
205102.000			-6.001			-1.200
205201.000			-6.001			-1.200
205301.000			-6.000			-1.200
205401.000			-6.000			-1.200
205500.000			-6.000			-1.200
205600.000			-6.000			-1.200
205701.000			-6.000			-1.200
205800.000			-6.000			-1.200
205900.000			-5.999			-1.200
206002.000			-5.999			-1.200
206101.000			-5.999			-1.200
206201.000			-5.999			-1.200
206301.000			-6.000			-1.200
206400.000			-5.999			-1.200
206500.000			-6.000			-1.200
206600.000			-6.000			-1.200
206700.000			-5.999			-1.200
206801.000			-5.999			-1.200
206900.000			-5.998			-1.200
207001.000			-5.999			-1.200
207102.000			-5.999			-1.200
207201.000			-5.999			-1.200
207300.000			-5.999			-1.200
207401.000			-5.999			-1.200
207500.000			-6.000			-1.200
207600.000			-6.001			-1.200
207701.000			-6.000			-1.200
207800.000			-6.000			-1.200
207900.000			-5.999			-1.200
208002.000			-5.999			-1.200
208101.000			-5.999			-1.200
208201.000			-5.999			-1.200
208301.000			-6.000			-1.200
208400.000			-5.999			-1.200
208500.000			-5.998			-1.200
208601.000			-5.997			-1.199
208700.000			-5.999			-1.200
208800.000			-5.998			-1.200
208901.000			-5.997			-1.199
209001.000			-5.998			-1.200
209101.000			-5.998			-1.200
209201.000			-5.997			-1.199
209300.000			-5.998			-1.200
209400.000			-5.998			-1.200
209501.000			-5.998			-1.200
209600.000			-5.997			-1.199
209700.000			-5.997			-1.199
209800.000			-5.998			-1.200
209900.000			-5.998			-1.200
210002.000			-5.998			-1.200
210101.000			-5.997			-1.199
210200.000			-5.997			-1.199
210301.000			-5.996			-1.199
210400.000			-5.997			-1.199
210500.000			-5.997			-1.199
210601.000			-5.997			-1.199
210700.000			-5.998			-1.200
210800.000			-5.997			-1.199
210902.000			-5.996			-1.199
211001.000			-5.996			-1.199
211101.000			-5.995			-1.199
211201.000			-5.996			-1.199
211300.000			-5.996			-1.199
211400.000			-5.996			-1.199
211501.000			-5.996			-1.199
211600.000			-5.995			-1.199
211700.000			-5.996			-1.199
211801.000			-5.996			-1.199
211901.000			-5.995			-1.199
212001.000			-5.996			-1.199
212101.000			-5.996			-1.199
212200.000			-5.995			-1.199
212300.000			-5.996			-1.199
212401.000			-5.995			-1.199
212500.000			-5.996			-1.199
212600.000			-5.995			-1.199
212701.000			-5.995			-1.199
212801.000			-5.995			-1.199
212902.000			-5.994			-1.199
213001.000			-5.994			-1.199
213100.000			-5.994			-1.199
213201.000			-5.994			-1.199
213300.000			-5.996			-1.199
213400.000			-5.996			-1.199
213501.000			-5.995			-1.199
213600.000			-5.994			-1.199
213700.000			-5.994			-1.199
213802.000			-5.995			-1.199
213901.000			-5.995			-1.199
214000.000			-5.995			-1.199
214101.000			-5.995			-1.199
214200.000			-5.995			-1.199
214300.000			-5.994			-1.199
214401.000			-5.995			-1.199
214500.000			-5.993			-1.199
214600.000			-5.994			-1.199
214702.000			-5.994			-1.199
214801.000			-5.993			-1.199
214900.000			-5.993			-1.199
215001.000			-5.994			-1.199
215100.000			-5.994			-1.199
215200.000			-5.994			-1.199
215301.000			-5.994			-1.199
215400.000			-5.994			-1.199
215500.000			-5.995			-1.199
215602.000			-5.993			-1.199
215701.000			-5.993			-1.199
215801.000			-5.994			-1.199
215901.000			-5.993			-1.199
216000.000			-5.993			-1.199
216100.000			-5.992			-1.198
216200.000			-5.992			-1.198
216300.000			-5.992			-1.198
216401.000			-5.992			-1.198
216500.000			-5.993			-1.199
216601.000			-5.992			-1.198
216702.000			-5.992			-1.198
216800.000			-5.992			-1.198
216900.000			-5.992			-1.198
217001.000			-5.992			-1.198
217100.000			-5.992			-1.198
217200.000			-5.992			-1.198
217301.000			-5.993			-1.199
217400.000			-5.993			-1.199
217501.000			-5.990			-1.198
217602.000			-5.990			-1.198
217701.000			-5.991			-1.198
217800.000			-5.991			-1.198
217901.000			-5.990			-1.198
218000.000			-5.990			-1.198
218100.000			-5.992			-1.198
218201.000			-5.991			-1.198
218300.000			-5.990			-1.198
218400.000			-5.991			-1.198
218502.000			-5.991			-1.198
218601.000			-5.991			-1.198
218700.000			-5.991			-1.198
218801.000			-5.991			-1.198
218900.000			-5.991			-1.198
219000.000			-5.990			-1.198
219101.000			-5.990			-1.198
219200.000			-5.990			-1.198
219300.000			-5.990			-1.198
219402.000			-5.991			-1.198
219501.000			-5.990			-1.198
219602.000			-5.990			-1.198
219700.000			-5.990			-1.198
219800.000			-5.990			-1.198
219901.000			-5.991			-1.198
220000.000			-5.990			-1.198
220100.000			-5.989			-1.198
220201.000			-5.990			-1.198
220300.000			-5.990			-1.198
220401.000			-5.990			-1.198
220502.000			-5.990			-1.198
220601.000			-5.990			-1.198
220700.000			-5.989			-1.198
220801.000			-5.990			-1.198
220900.000			-5.989			-1.198
221000.000			-5.988			-1.198
221101.000			-5.989			-1.198
221200.000			-5.989			-1.198
221300.000			-5.989			-1.198
221402.000			-5.988			-1.198
221501.000			-5.989			-1.198
221600.000			-5.989			-1.198
221701.000			-5.989			-1.198
221800.000			-5.989			-1.198
221900.000			-5.988			-1.198
222001.000			-5.989			-1.198
222100.000			-5.989			-1.198
222200.000			-5.988			-1.198
222302.000			-5.988			-1.198
222401.000			-5.989			-1.198
222502.000			-5.989			-1.198
222600.000			-5.988			-1.198
222700.000			-5.988			-1.198
222801.000			-5.988			-1.198
222900.000			-5.988			-1.198
223000.000			-5.989			-1.198
223101.000			-5.988			-1.198
223200.000			-5.987			-1.197
223301.000			-5.987			-1.197
223402.000			-5.988			-1.198
223501.000			-5.987			-1.197
223600.000			-5.987			-1.197
223701.000			-5.987			-1.197
223800.000			-5.987			-1.197
223900.000			-5.988			-1.198
224001.000			-5.987			-1.197
224100.000			-5.987			-1.197
224200.000			-5.988			-1.198
224302.000			-5.987			-1.197
224401.000			-5.987			-1.197
224500.000			-5.987			-1.197
224601.000			-5.986			-1.197
224700.000			-5.985			-1.197
224800.000			-5.986			-1.197
224901.000			-5.987			-1.197
225000.000			-5.987			-1.197
225100.000			-5.987			-1.197
225202.000			-5.986			-1.197
225301.000			-5.986			-1.197
225401.000			-5.985			-1.197
225501.000			-5.985			-1.197
225600.000			-5.986			-1.197
225700.000			-5.986			-1.197
225800.000			-5.986			-1.197
225900.000			-5.986			-1.197
226001.000			-5.985			-1.197
226100.000			-5.986			-1.197
226201.000			-5.986			-1.197
226302.000			-5.984			-1.197
226401.000			-5.984			-1.197
226500.000			-5.985			-1.197
226601.000			-5.984			-1.197
226700.000			-5.986			-1.197
226800.000			-5.984			-1.197
226901.000			-5.984			-1.197
227000.000			-5.985			-1.197
227100.000			-5.984			-1.197
227202.000			-5.984			-1.197
227301.000			-5.984			-1.197
227400.000			-5.985			-1.197
227501.000			-5.985			-1.197
227600.000			-5.985			-1.197
227700.000			-5.984			-1.197
227801.000			-5.982			-1.196
227900.000			-5.983			-1.197
228000.000			-5.984			-1.197
228101.000			-5.984			-1.197
228201.000			-5.983			-1.197
228301.000			-5.984			-1.197
228401.000			-5.983			-1.197
228500.000			-5.983			-1.197
228600.000			-5.984			-1.197
228701.000			-5.983			-1.197
228800.000			-5.984			-1.197
228900.000			-5.983			-1.197
229000.000			-5.982			-1.196
229101.000			-5.982			-1.196
229202.000			-5.983			-1.197
229301.000			-5.984			-1.197
229400.000			-5.983			-1.197
229501.000			-5.983			-1.197
229600.000			-5.982			-1.196
229700.000			-5.982			-1.196
229801.000			-5.983			-1.197
229900.000			-5.982			-1.196
230000.000			-5.982			-1.196
230102.000			-5.984			-1.197
230201.000			-5.983			-1.197
230300.000			-5.983			-1.197
230401.000			-5.983			-1.197
230500.000			-5.983			-1.197
230600.000			-5.983			-1.197
230701.000			-5.982			-1.196
230800.000			-5.983			-1.197
230900.000			-5.983			-1.197
231002.000			-5.982			-1.196
231101.000			-5.981			-1.196
231201.000			-5.981			-1.196
231301.000			-5.983			-1.197
231400.000			-5.983			-1.197
231500.000			-5.981			-1.196
231601.000			-5.981			-1.196
231700.000			-5.981			-1.196
231800.000			-5.982			-1.196
231902.000			-5.982			-1.196
232001.000			-5.981			-1.196
232102.000			-5.982			-1.196
232200.000			-5.982			-1.196
232300.000			-5.981			-1.196
232401.000			-5.979			-1.196
232500.000			-5.981			-1.196
232600.000			-5.980			-1.196
232701.000			-5.980			-1.196
232800.000			-5.981			-1.196
232901.000			-5.981			-1.196
233002.000			-5.981			-1.196
233100.000			-5.980			-1.196
233200.000			-5.981			-1.196
233301.000			-5.979			-1.196
233400.000			-5.979			-1.196
233500.000			-5.981			-1.196
233601.000			-5.981			-1.196
233700.000			-5.980			-1.196
233801.000			-5.980			-1.196
233902.000			-5.981			-1.196
234001.000			-5.980			-1.196
234100.000			-5.980			-1.196
234201.000			-5.980			-1.196
234300.000			-5.980			-1.196
234400.000			-5.979			-1.196
234501.000			-5.979			-1.196
234600.000			-5.979			-1.196
234700.000			-5.980			-1.196
234802.000			-5.980			-1.196
234901.000			-5.980			-1.196
235000.000			-5.978			-1.196
235101.000			-5.979			-1.196
235200.000			-5.980			-1.196
235300.000			-5.980			-1.196
235400.000			-5.980			-1.196
235500.000			-5.979			-1.196
235601.000			-5.979			-1.196
235701.000			-5.979			-1.196
235801.000			-5.980			-1.196
235902.000			-5.979			-1.196
236000.000			-5.978			-1.196
236100.000			-5.979			-1.196
236201.000			-5.979			-1.196
236300.000			-5.978			-1.196
236400.000			-5.979			-1.196
236501.000			-5.979			-1.196
236600.000			-5.977			-1.195
236701.000			-5.976			-1.195
236802.000			-5.978			-1.196
236901.000			-5.978			-1.196
237000.000			-5.978			-1.196
237101.000			-5.978			-1.196
237200.000			-5.978			-1.196
237300.000			-5.978			-1.196
237401.000			-5.978			-1.196
237500.000			-5.978			-1.196
237600.000			-5.978			-1.196
237702.000			-5.978			-1.196
237801.000			-5.978			-1.196
237901.000			-5.978			-1.196
238001.000			-5.978			-1.196
238100.000			-5.977			-1.195
238200.000			-5.978			-1.196
238301.000			-5.977			-1.195
238400.000			-5.976			-1.195
238500.000			-5.977			-1.195
238600.000			-5.976			-1.195
238701.000			-5.976			-1.195
238802.000			-5.977			-1.195
238901.000			-5.976			-1.195
239000.000			-5.975			-1.195
239101.000			-5.975			-1.195
239200.000			-5.975			-1.195
239300.000			-5.976			-1.195
239401.000			-5.976			-1.195
239500.000			-5.975			-1.195
239600.000			-5.975			-1.195
239702.000			-5.976			-1.195
239801.000			-5.977			-1.195
239901.000			-5.976			-1.195
240001.000			-5.975			-1.195
240100.000			-5.977			-1.195
240200.000			-5.977			-1.195
240301.000			-5.976			-1.195
240400.000			-5.975			-1.195
240500.000			-5.976			-1.195
240601.000			-5.976			-1.195
240701.000			-5.976			-1.195
240801.000			-5.976			-1.195
240901.000			-5.977			-1.195
241000.000			-5.976			-1.195
241100.000			-5.975			-1.195
241201.000			-5.976			-1.195
241300.000			-5.975			-1.195
241400.000			-5.975			-1.195
241501.000			-5.975			-1.195
241601.000			-5.975			-1.195
241702.000			-5.975			-1.195
241801.000			-5.975			-1.195
241900.000			-5.975			-1.195
242001.000			-5.976			-1.195
242100.000			-5.975			-1.195
242200.000			-5.975			-1.195
242301.000			-5.974			-1.195
242400.000			-5.975			-1.195
242500.000			-5.974			-1.195
242602.000			-5.974			-1.195
242701.000			-5.974			-1.195
242800.000			-5.974			-1.195
242901.000			-5.974			-1.195
243000.000			-5.973			-1.195
243100.000			-5.974			-1.195
243201.000			-5.974			-1.195
243300.000			-5.975			-1.195
243400.000			-5.974			-1.195
243502.000			-5.973			-1.195
243601.000			-5.974			-1.195
243701.000			-5.974			-1.195
243801.000			-5.974			-1.195
243900.000			-5.974			-1.195
244000.000			-5.973			-1.195
244101.000			-5.972			-1.194
244200.000			-5.973			-1.195
244300.000			-5.972			-1.194
244401.000			-5.973			-1.195
244501.000			-5.974			-1.195
244601.000			-5.973			-1.195
244701.000			-5.973			-1.195
244800.000			-5.973			-1.195
244900.000			-5.972			-1.194
245000.000			-5.973			-1.195
245100.000			-5.973			-1.195
245201.000			-5.973			-1.195
245300.000			-5.973			-1.195
245401.000			-5.973			-1.195
245502.000			-5.973			-1.195
245600.000			-5.972			-1.194
245700.000			-5.972			-1.194
245801.000			-5.972			-1.194
245900.000			-5.972			-1.194
246000.000			-5.972			-1.194
246101.000			-5.971			-1.194
246200.000			-5.972			-1.194
246301.000			-5.972			-1.194
246402.000			-5.972			-1.194
246501.000			-5.973			-1.195
246600.000			-5.971			-1.194
246701.000			-5.971			-1.194
246800.000			-5.971			-1.194
246900.000			-5.973			-1.195
247001.000			-5.971			-1.194
247100.000			-5.972			-1.194
247200.000			-5.972			-1.194
247302.000			-5.971			-1.194
247401.000			-5.972			-1.194
247500.000			-5.972			-1.194
247601.000			-5.971			-1.194
247700.000			-5.972			-1.194
247800.000			-5.972			-1.194
247901.000			-5.973			-1.195
248000.000			-5.971			-1.194
248100.000			-5.971			-1.194
248202.000			-5.969			-1.194
248301.000			-5.970			-1.194
248402.000			-5.971			-1.194
248500.000			-5.971			-1.194
248600.000			-5.971			-1.194
248701.000			-5.970			-1.194
248800.000			-5.970			-1.194
248900.000			-5.970			-1.194
249001.000			-5.970			-1.194
249100.000			-5.970			-1.194
249201.000			-5.971			-1.194
249302.000			-5.971			-1.194
249401.000			-5.970			-1.194
249500.000			-5.969			-1.194
249601.000			-5.969			-1.194
249700.000			-5.970			-1.194
249800.000			-5.971			-1.194
249901.000			-5.971			-1.194
250000.000			-5.970			-1.194
250100.000			-5.969			-1.194
250202.000			-5.969			-1.194
250301.000			-5.969			-1.194
250400.000			-5.968			-1.194
250501.000			-5.968			-1.194
250600.000			-5.968			-1.194
250700.000			-5.970			-1.194
250801.000			-5.969			-1.194
250900.000			-5.969			-1.194
251000.000			-5.969			-1.194
251102.000			-5.970			-1.194
251201.000			-5.970			-1.194
251302.000			-5.970			-1.194
251400.000			-5.968			-1.194
251500.000			-5.968			-1.194
251601.000			-5.969			-1.194
251700.000			-5.970			-1.194
251800.000			-5.970			-1.194
251901.000			-5.970			-1.194
252000.000			-5.969			-1.194
252101.000			-5.969			-1.194
252202.000			-5.969			-1.194
252301.000			-5.968			-1.194
252400.000			-5.969			-1.194
252501.000			-5.968			-1.194
252600.000			-5.967			-1.193
252700.000			-5.967			-1.193
252801.000			-5.967			-1.193
252900.000			-5.968			-1.194
253000.000			-5.967			-1.193
253102.000			-5.968			-1.194
253201.000			-5.967			-1.193
253300.000			-5.966			-1.193
253401.000			-5.967			-1.193
253500.000			-5.968			-1.194
253600.000			-5.967			-1.193
253701.000			-5.968			-1.194
253800.000			-5.968			-1.194
253900.000			-5.966			-1.193
254002.000			-5.966			-1.193
254101.000			-5.967			-1.193
254201.000			-5.967			-1.193
254301.000			-5.966			-1.193
254400.000			-5.966			-1.193
254500.000			-5.966			-1.193
254600.000			-5.966			-1.193
254700.000			-5.966			-1.193
254801.000			-5.966			-1.193
254900.000			-5.967			-1.193
255001.000			-5.967			-1.193
255102.000			-5.967			-1.193
255201.000			-5.967			-1.193
255300.000			-5.967			-1.193
255401.000			-5.966			-1.193
255500.000			-5.966			-1.193
255600.000			-5.966			-1.193
255701.000			-5.966			-1.193
255800.000			-5.965			-1.193
255900.000			-5.966			-1.193
256002.000			-5.965			-1.193
256101.000			-5.964			-1.193
256201.000			-5.965			-1.193
256301.000			-5.964			-1.193
256400.000			-5.964			-1.193
256500.000			-5.964			-1.193
256601.000			-5.965			-1.193
256700.000			-5.964			-1.193
256800.000			-5.964			-1.193
256901.000			-5.964			-1.193
257001.000			-5.964			-1.193
257101.000			-5.964			-1.193
257201.000			-5.963			-1.193
257300.000			-5.963			-1.193
257400.000			-5.963			-1.193
257501.000			-5.963			-1.193
257600.000			-5.964			-1.193
257700.000			-5.962			-1.192
257800.000			-5.963			-1.193
257900.000			-5.963			-1.193
258002.000			-5.962			-1.192
258101.000			-5.962			-1.192
258200.000			-5.961			-1.192
258301.000			-5.962			-1.192
258400.000			-5.963			-1.193
258500.000			-5.963			-1.193
258601.000			-5.962			-1.192
258700.000			-5.962			-1.192
258800.000			-5.963			-1.193
258902.000			-5.962			-1.192
259001.000			-5.962			-1.192
259101.000			-5.962			-1.192
259201.000			-5.961			-1.192
259300.000			-5.961			-1.192
259400.000			-5.960			-1.192
259501.000			-5.962			-1.192
259600.000			-5.961			-1.192
259700.000			-5.960			-1.192
259801.000			-5.960			-1.192
259901.000			-5.961			-1.192
260001.000			-5.961			-1.192
260101.000			-5.959			-1.192
260200.000			-5.959			-1.192
260300.000			-5.961			-1.192
260401.000			-5.960			-1.192
260500.000			-5.959			-1.192
260600.000			-5.960			-1.192
260701.000			-5.960			-1.192
260801.000			-5.960			-1.192
260902.000			-5.961			-1.192
261001.000			-5.960			-1.192
261100.000			-5.959			-1.192
261201.000			-5.960			-1.192
261300.000			-5.961			-1.192
261400.000			-5.960			-1.192
261501.000			-5.960			-1.192
261600.000			-5.959			-1.192
261700.000			-5.958			-1.192
261802.000			-5.959			-1.192
261901.000			-5.959			-1.192
262001.000			-5.958			-1.192
262101.000			-5.958			-1.192
262200.000			-5.958			-1.192
262300.000			-5.959			-1.192
262401.000			-5.959			-1.192
262500.000			-5.959			-1.192
262600.000			-5.959			-1.192
262701.000			-5.959			-1.192
262801.000			-5.958			-1.192
262901.000			-5.959			-1.192
263001.000			-5.958			-1.192
263100.000			-5.958			-1.192
263200.000			-5.958			-1.192
263301.000			-5.958			-1.192
263400.000			-5.958			-1.192
263500.000			-5.957			-1.191
263601.000			-5.958			-1.192
263701.000			-5.958			-1.192
263801.000			-5.958			-1.192
263902.000			-5.958			-1.192
264000.000			-5.958			-1.192
264100.000			-5.959			-1.192
264200.000			-5.959			-1.192
264300.000			-5.958			-1.192
264401.000			-5.958			-1.192
264500.000			-5.958			-1.192
264600.000			-5.958			-1.192
264702.000			-5.958			-1.192
264801.000			-5.957			-1.191
264900.000			-5.957			-1.191
265001.000			-5.958			-1.192
265100.000			-5.958			-1.192
265200.000			-5.957			-1.191
265301.000			-5.956			-1.191
265400.000			-5.957			-1.191
265500.000			-5.957			-1.191
265602.000			-5.958			-1.192
265701.000			-5.957			-1.191
265801.000			-5.956			-1.191
265901.000			-5.958			-1.192
266000.000			-5.957			-1.191
266100.000			-5.958			-1.192
266201.000			-5.958			-1.192
266300.000			-5.957			-1.191
266400.000			-5.956			-1.191
266501.000			-5.957			-1.191
266601.000			-5.957			-1.191
266701.000			-5.957			-1.191
266802.000			-5.957			-1.191
266900.000			-5.957			-1.191
267000.000			-5.957			-1.191
267101.000			-5.957			-1.191
267200.000			-5.957			-1.191
267300.000			-5.957			-1.191
267400.000			-5.958			-1.192
267500.000			-5.958			-1.192
267602.000			-5.958			-1.192
267701.000			-5.958			-1.192
267801.000			-5.957			-1.191
267901.000			-5.957			-1.191
268000.000			-5.956			-1.191
268100.000			-5.957			-1.191
268201.000			-5.958			-1.192
268300.000			-5.958			-1.192
268400.000			-5.957			-1.191
268501.000			-5.956			-1.191
268601.000			-5.957			-1.191
268701.000			-5.957			-1.191
268801.000			-5.958			-1.192
268900.000			-5.958			-1.192
269000.000			-5.957			-1.191
269101.000			-5.958			-1.192
269200.000			-5.958			-1.192
269300.000			-5.958			-1.192
269401.000			-5.958			-1.192
269500.000			-5.956			-1.191
269601.000			-5.958			-1.192
269702.000			-5.957			-1.191
269800.000			-5.957			-1.191
269900.000			-5.958			-1.192
270001.000			-5.958			-1.192
270100.000			-5.956			-1.191
270200.000			-5.956			-1.191
270301.000			-5.956			-1.191
270400.000			-5.957			-1.191
270502.000			-5.957			-1.191
270601.000			-5.957			-1.191
270701.000			-5.956			-1.191
270801.000			-5.956			-1.191
270900.000			-5.957			-1.191
271000.000			-5.956			-1.191
271101.000			-5.957			-1.191
271200.000			-5.956			-1.191
271300.000			-5.955			-1.191
271401.000			-5.956			-1.191
271501.000			-5.957			-1.191
271601.000			-5.957			-1.191
271701.000			-5.956			-1.191
271800.000			-5.956			-1.191
271900.000			-5.957			-1.191
272001.000			-5.957			-1.191
272100.000			-5.956			-1.191
272200.000			-5.956			-1.191
272301.000			-5.956			-1.191
272401.000			-5.956			-1.191
272501.000			-5.956			-1.191
272602.000			-5.956			-1.191
272700.000			-5.956			-1.191
272800.000			-5.955			-1.191
272901.000			-5.956			-1.191
273000.000			-5.956			-1.191
273100.000			-5.955			-1.191
273201.000			-5.956			-1.191
273300.000			-5.956			-1.191
273401.000			-5.956			-1.191
273502.000			-5.956			-1.191
273601.000			-5.955			-1.191
273700.000			-5.956			-1.191
273800.000			-5.956			-1.191
273900.000			-5.955			-1.191
274001.000			-5.956			-1.191
274100.000			-5.955			-1.191
274200.000			-5.955			-1.191
274301.000			-5.955			-1.191
274401.000			-5.955			-1.191
274501.000			-5.956			-1.191
274601.000			-5.956			-1.191
274700.000			-5.955			-1.191
274800.000			-5.954			-1.191
274901.000			-5.953			-1.191
275000.000			-5.954			-1.191
275100.000			-5.955			-1.191
275201.000			-5.955			-1.191
275301.000			-5.954			-1.191
275401.000			-5.955			-1.191
275502.000			-5.954			-1.191
275600.000			-5.955			-1.191
275700.000			-5.954			-1.191
275801.000			-5.953			-1.191
275900.000			-5.953			-1.191
276000.000			-5.953			-1.191
276101.000			-5.954			-1.191
276200.000			-5.953			-1.191
276301.000			-5.954			-1.191
276402.000			-5.954			-1.191
276501.000			-5.954			-1.191
276600.000			-5.953			-1.191
276701.000			-5.953			-1.191
276800.000			-5.953			-1.191
276900.000			-5.953			-1.191
277000.000			-5.953			-1.191
277100.000			-5.954			-1.191
277201.000			-5.954			-1.191
277301.000			-5.953			-1.191
277401.000			-5.953			-1.191
277501.000			-5.953			-1.191
277600.000			-5.953			-1.191
277700.000			-5.953			-1.191
277801.000			-5.953			-1.191
277900.000			-5.953			-1.191
278000.000			-5.953			-1.191
278101.000			-5.952			-1.190
278201.000			-5.952			-1.190
278301.000			-5.952			-1.190
278402.000			-5.952			-1.190
278500.000			-5.952			-1.190
278600.000			-5.952			-1.190
278701.000			-5.953			-1.191
278800.000			-5.953			-1.191
278900.000			-5.953			-1.191
279001.000			-5.952			-1.190
279100.000			-5.952			-1.190
279201.000			-5.952			-1.190
279302.000			-5.952			-1.190
279401.000			-5.952			-1.190
279500.000			-5.951			-1.190
279601.000			-5.950			-1.190
279700.000			-5.952			-1.190
279800.000			-5.951			-1.190
279901.000			-5.952			-1.190
280000.000			-5.951			-1.190
280100.000			-5.951			-1.190
280202.000			-5.951			-1.190
280301.000			-5.951			-1.190
280401.000			-5.951			-1.190
280500.000			-5.951			-1.190
280600.000			-5.951			-1.190
280701.000			-5.951			-1.190
280800.000			-5.951			-1.190
280900.000			-5.950			-1.190
281001.000			-5.951			-1.190
281101.000			-5.952			-1.190
281201.000			-5.951			-1.190
281301.000			-5.950			-1.190
281400.000			-5.951			-1.190
281500.000			-5.950			-1.190
281601.000			-5.950			-1.190
281700.000			-5.951			-1.190
281800.000			-5.950			-1.190
281901.000			-5.950			-1.190
282001.000			-5.951			-1.190
282101.000			-5.951			-1.190
282202.000			-5.950			-1.190
282300.000			-5.950			-1.190
282400.000			-5.950			-1.190
282501.000			-5.950			-1.190
282600.000			-5.950			-1.190
282700.000			-5.950			-1.190
282801.000			-5.950			-1.190
282900.000			-5.950			-1.190
283001.000			-5.950			-1.190
283102.000			-5.950			-1.190
283200.000			-5.950			-1.190
283300.000			-5.949			-1.190
283400.000			-5.950			-1.190
283500.000			-5.950			-1.190
283601.000			-5.950			-1.190
283700.000			-5.950			-1.190
283800.000			-5.948			-1.190
283902.000			-5.949			-1.190
284001.000			-5.950			-1.190
284101.000			-5.949			-1.190
284201.000			-5.949			-1.190
284300.000			-5.949			-1.190
284400.000			-5.949			-1.190
284501.000			-5.950			-1.190
284600.000			-5.950			-1.190
284700.000			-5.949			-1.190
284801.000			-5.949			-1.190
284901.000			-5.949			-1.190
285001.000			-5.949			-1.190
285102.000			-5.949			-1.190
285200.000			-5.949			-1.190
285300.000			-5.949			-1.190
285401.000			-5.948			-1.190
285500.000			-5.948			-1.190
285600.000			-5.948			-1.190
285701.000			-5.948			-1.190
285800.000			-5.948			-1.190
285901.000			-5.948			-1.190
286002.000			-5.949			-1.190
286101.000			-5.948			-1.190
286200.000			-5.948			-1.190
286301.000			-5.947			-1.189
286400.000			-5.947			-1.189
286500.000			-5.948			-1.190
286600.000			-5.948			-1.190
286700.000			-5.948			-1.190
286801.000			-5.947			-1.189
286901.000			-5.947			-1.189
287001.000			-5.948			-1.190
287101.000			-5.948			-1.190
287200.000			-5.947			-1.189
287300.000			-5.947			-1.189
287401.000			-5.947			-1.189
287500.000			-5.947			-1.189
287600.000			-5.946			-1.189
287701.000			-5.947			-1.189
287801.000			-5.948			-1.190
287901.000			-5.948			-1.190
288002.000			-5.948			-1.190
288100.000			-5.947			-1.189
288200.000			-5.947			-1.189
288301.000			-5.947			-1.189
288400.000			-5.948			-1.190
288500.000			-5.947			-1.189
288601.000			-5.946			-1.189
288700.000			-5.947			-1.189
288801.000			-5.946			-1.189
288902.000			-5.946			-1.189
289001.000			-5.947			-1.189
289100.000			-5.947			-1.189
289201.000			-5.947			-1.189
289300.000			-5.947			-1.189
289400.000			-5.946			-1.189
289501.000			-5.946			-1.189
289600.000			-5.946			-1.189
289700.000			-5.947			-1.189
289802.000			-5.946			-1.189
289901.000			-5.946			-1.189
290002.000			-5.946			-1.189
290100.000			-5.946			-1.189
290200.000			-5.946			-1.189
290301.000			-5.946			-1.189
290400.000			-5.945			-1.189
290500.000			-5.945			-1.189
290601.000			-5.945			-1.189
290700.000			-5.946			-1.189
290801.000			-5.946			-1.189
290902.000			-5.946			-1.189
291001.000			-5.945			-1.189
291100.000			-5.945			-1.189
291201.000			-5.944			-1.189
291300.000			-5.946			-1.189
291400.000			-5.946			-1.189
291501.000			-5.945			-1.189
291600.000			-5.945			-1.189
291700.000			-5.945			-1.189
291802.000			-5.945			-1.189
291901.000			-5.945			-1.189
292000.000			-5.946			-1.189
292101.000			-5.944			-1.189
292200.000			-5.944			-1.189
292300.000			-5.944			-1.189
292401.000			-5.944			-1.189
292500.000			-5.944			-1.189
292600.000			-5.943			-1.189
292702.000			-5.943			-1.189
292801.000			-5.943			-1.189
292902.000			-5.944			-1.189
293000.000			-5.944			-1.189
293100.000			-5.944			-1.189
293201.000			-5.944			-1.189
293300.000			-5.945			-1.189
293400.000			-5.944			-1.189
293501.000			-5.945			-1.189
293600.000			-5.944			-1.189
293701.000			-5.943			-1.189
293802.000			-5.944			-1.189
293901.000			-5.944			-1.189
294000.000			-5.944			-1.189
294101.000			-5.943			-1.189
294200.000			-5.943			-1.189
294300.000			-5.943			-1.189
294401.000			-5.942			-1.188
294500.000			-5.942			-1.188
294600.000			-5.942			-1.188
294702.000			-5.942			-1.188
294801.000			-5.943			-1.189
294900.000			-5.943			-1.189
295001.000			-5.942			-1.188
295100.000			-5.942			-1.188
295200.000			-5.943			-1.189
295301.000			-5.943			-1.189
295400.000			-5.943			-1.189
295500.000			-5.944			-1.189
295602.000			-5.944			-1.189
295701.000			-5.943			-1.189
295801.000			-5.943			-1.189
295901.000			-5.943			-1.189
296000.000			-5.943			-1.189
296100.000			-5.943			-1.189
296200.000			-5.942			-1.188
296300.000			-5.941			-1.188
296401.000			-5.942			-1.188
296500.000			-5.942			-1.188
296601.000			-5.942			-1.188
296702.000			-5.942			-1.188
296800.000			-5.942			-1.188
296900.000			-5.942			-1.188
297001.000			-5.942			-1.188
297100.000			-5.942			-1.188
297200.000			-5.942			-1.188
297301.000			-5.941			-1.188
297400.000			-5.941			-1.188
297500.000			-5.941			-1.188
297602.000			-5.941			-1.188
297701.000			-5.941			-1.188
297800.000			-5.942			-1.188
297901.000			-5.941			-1.188
298000.000			-5.942			-1.188
298100.000			-5.942			-1.188
298201.000			-5.942			-1.188
298300.000			-5.942			-1.188
298400.000			-5.940			-1.188
298502.000			-5.940			-1.188
298601.000			-5.941			-1.188
298701.000			-5.941			-1.188
298801.000			-5.941			-1.188
298900.000			-5.941			-1.188
299000.000			-5.940			-1.188
299101.000			-5.941			-1.188
299200.000			-5.941			-1.188
299300.000			-5.940			-1.188
299400.000			-5.941			-1.188
299501.000			-5.941			-1.188
299602.000			-5.941			-1.188
299701.000			-5.940			-1.188
299800.000			-5.940			-1.188
299901.000			-5.940			-1.188
