# Acquired on 26/01/2024 11:31:42 
# SPIDER: Creep_4mm_HM077x145x38AB-1
# CREEP MEASUREMENT

# time [ms]		force [N]		stiffness [N/mm]
0.000			-13.818			-3.455
104.000			-14.455			-3.614
204.000			-14.641			-3.660
304.000			-14.617			-3.654
405.000			-14.577			-3.644
504.000			-14.518			-3.629
604.000			-14.495			-3.624
705.000			-14.473			-3.618
804.000			-14.454			-3.613
904.000			-14.437			-3.609
1005.000			-14.420			-3.605
1103.000			-14.405			-3.601
1204.000			-14.379			-3.595
1305.000			-14.367			-3.592
1404.000			-14.355			-3.589
1504.000			-14.344			-3.586
1604.000			-14.332			-3.583
1704.000			-14.323			-3.581
1804.000			-14.313			-3.578
1905.000			-14.296			-3.574
2004.000			-14.287			-3.572
2104.000			-14.278			-3.569
2205.000			-14.270			-3.568
2303.000			-14.263			-3.566
2405.000			-14.255			-3.564
2504.000			-14.248			-3.562
2604.000			-14.241			-3.560
2705.000			-14.228			-3.557
2804.000			-14.221			-3.555
2904.000			-14.215			-3.554
3004.000			-14.210			-3.552
3104.000			-14.203			-3.551
3204.000			-14.196			-3.549
3305.000			-14.190			-3.547
3404.000			-14.180			-3.545
3503.000			-14.174			-3.544
3605.000			-14.170			-3.542
3704.000			-14.164			-3.541
3804.000			-14.159			-3.540
3905.000			-14.155			-3.539
4004.000			-14.150			-3.538
4104.000			-14.141			-3.535
4204.000			-14.135			-3.534
4304.000			-14.132			-3.533
4404.000			-14.128			-3.532
4505.000			-14.123			-3.531
4604.000			-14.119			-3.530
4703.000			-14.114			-3.528
4805.000			-14.106			-3.527
4904.000			-14.102			-3.526
5004.000			-14.099			-3.525
5105.000			-14.095			-3.524
5204.000			-14.091			-3.523
5304.000			-14.088			-3.522
5404.000			-14.084			-3.521
5504.000			-14.080			-3.520
5605.000			-14.073			-3.518
5704.000			-14.069			-3.517
5804.000			-14.066			-3.516
5904.000			-14.062			-3.516
6004.000			-14.059			-3.515
6104.000			-14.055			-3.514
6205.000			-14.052			-3.513
6304.000			-14.046			-3.511
6404.000			-14.042			-3.511
6505.000			-14.039			-3.510
6603.000			-14.036			-3.509
6704.000			-14.033			-3.508
6805.000			-14.031			-3.508
6904.000			-14.028			-3.507
7004.000			-14.022			-3.505
7104.000			-14.018			-3.504
7204.000			-14.016			-3.504
7304.000			-14.014			-3.503
7405.000			-14.012			-3.503
7504.000			-14.009			-3.502
7604.000			-14.004			-3.501
7705.000			-14.000			-3.500
7803.000			-13.998			-3.500
7904.000			-13.994			-3.499
8005.000			-13.991			-3.498
8104.000			-13.989			-3.497
8204.000			-13.987			-3.497
8305.000			-13.984			-3.496
8404.000			-13.979			-3.495
8503.000			-13.976			-3.494
8605.000			-13.975			-3.494
8704.000			-13.972			-3.493
8805.000			-13.971			-3.493
8904.000			-13.968			-3.492
9004.000			-13.965			-3.491
9105.000			-13.963			-3.491
9203.000			-13.957			-3.489
9304.000			-13.955			-3.489
9405.000			-13.953			-3.488
9504.000			-13.950			-3.488
9604.000			-13.949			-3.487
9704.000			-13.947			-3.487
9804.000			-13.944			-3.486
9904.000			-13.939			-3.485
10005.000			-13.937			-3.484
10104.000			-13.935			-3.484
10204.000			-13.933			-3.483
10305.000			-13.931			-3.483
10403.000			-13.929			-3.482
10504.000			-13.927			-3.482
10605.000			-13.922			-3.481
10704.000			-13.921			-3.480
10804.000			-13.920			-3.480
10905.000			-13.918			-3.479
11004.000			-13.916			-3.479
11103.000			-13.913			-3.478
11205.000			-13.912			-3.478
11304.000			-13.908			-3.477
11404.000			-13.906			-3.477
11505.000			-13.903			-3.476
11604.000			-13.901			-3.475
11704.000			-13.900			-3.475
11804.000			-13.898			-3.474
11904.000			-13.896			-3.474
12005.000			-13.895			-3.474
12104.000			-13.891			-3.473
12204.000			-13.890			-3.473
12304.000			-13.889			-3.472
12404.000			-13.887			-3.472
12503.000			-13.886			-3.472
12605.000			-13.884			-3.471
12704.000			-13.882			-3.470
12804.000			-13.878			-3.469
12905.000			-13.876			-3.469
13003.000			-13.874			-3.469
13104.000			-13.874			-3.468
13205.000			-13.872			-3.468
13304.000			-13.869			-3.467
13404.000			-13.868			-3.467
13505.000			-13.864			-3.466
13604.000			-13.863			-3.466
13703.000			-13.861			-3.465
13805.000			-13.859			-3.465
13904.000			-13.858			-3.464
14004.000			-13.856			-3.464
14105.000			-13.855			-3.464
14204.000			-13.852			-3.463
14304.000			-13.849			-3.462
14404.000			-13.848			-3.462
14504.000			-13.846			-3.462
14604.000			-13.845			-3.461
14705.000			-13.843			-3.461
14804.000			-13.842			-3.460
14904.000			-13.841			-3.460
15005.000			-13.838			-3.460
15103.000			-13.837			-3.459
15205.000			-13.835			-3.459
15304.000			-13.834			-3.459
15404.000			-13.832			-3.458
15505.000			-13.830			-3.457
15604.000			-13.828			-3.457
15704.000			-13.826			-3.457
15804.000			-13.825			-3.456
15904.000			-13.823			-3.456
16004.000			-13.822			-3.455
16105.000			-13.822			-3.456
16204.000			-13.821			-3.455
16303.000			-13.817			-3.454
16405.000			-13.814			-3.454
16504.000			-13.813			-3.453
16604.000			-13.812			-3.453
16705.000			-13.812			-3.453
16804.000			-13.810			-3.453
16904.000			-13.808			-3.452
17004.000			-13.807			-3.452
17104.000			-13.805			-3.451
17204.000			-13.803			-3.451
17305.000			-13.802			-3.451
17404.000			-13.800			-3.450
17504.000			-13.799			-3.450
17605.000			-13.798			-3.450
17703.000			-13.797			-3.449
17804.000			-13.795			-3.449
17905.000			-13.792			-3.448
18004.000			-13.790			-3.448
18104.000			-13.789			-3.447
18205.000			-13.789			-3.447
18304.000			-13.788			-3.447
18403.000			-13.786			-3.447
18504.000			-13.785			-3.446
18603.000			-13.783			-3.446
18705.000			-13.781			-3.445
18804.000			-13.780			-3.445
18904.000			-13.779			-3.445
19005.000			-13.777			-3.444
19103.000			-13.776			-3.444
19204.000			-13.776			-3.444
19305.000			-13.774			-3.444
19404.000			-13.772			-3.443
19504.000			-13.771			-3.443
19605.000			-13.770			-3.442
19704.000			-13.768			-3.442
19803.000			-13.767			-3.442
19905.000			-13.765			-3.441
20004.000			-13.763			-3.441
20104.000			-13.763			-3.441
20205.000			-13.762			-3.441
20304.000			-13.762			-3.440
20404.000			-13.760			-3.440
20504.000			-13.758			-3.440
20604.000			-13.757			-3.439
20704.000			-13.754			-3.439
20805.000			-13.753			-3.438
20904.000			-13.753			-3.438
21004.000			-13.752			-3.438
21105.000			-13.750			-3.437
21203.000			-13.749			-3.437
21304.000			-13.748			-3.437
21405.000			-13.748			-3.437
21504.000			-13.745			-3.436
21605.000			-13.745			-3.436
21704.000			-13.744			-3.436
21804.000			-13.742			-3.435
21904.000			-13.741			-3.435
22004.000			-13.740			-3.435
22104.000			-13.739			-3.435
22205.000			-13.738			-3.434
22304.000			-13.736			-3.434
22403.000			-13.734			-3.434
22505.000			-13.735			-3.434
22604.000			-13.732			-3.433
22704.000			-13.731			-3.433
22805.000			-13.731			-3.433
22904.000			-13.729			-3.432
23004.000			-13.726			-3.432
23104.000			-13.726			-3.432
23204.000			-13.726			-3.432
23304.000			-13.725			-3.431
23405.000			-13.723			-3.431
23504.000			-13.723			-3.431
23604.000			-13.722			-3.430
23705.000			-13.720			-3.430
23803.000			-13.719			-3.430
23904.000			-13.718			-3.429
24005.000			-13.718			-3.429
24104.000			-13.717			-3.429
24204.000			-13.716			-3.429
24305.000			-13.715			-3.429
24404.000			-13.712			-3.428
24503.000			-13.712			-3.428
24605.000			-13.711			-3.428
24704.000			-13.709			-3.427
24805.000			-13.709			-3.427
24904.000			-13.708			-3.427
25004.000			-13.707			-3.427
25105.000			-13.706			-3.426
25203.000			-13.704			-3.426
25304.000			-13.704			-3.426
25405.000			-13.702			-3.425
25504.000			-13.701			-3.425
25604.000			-13.701			-3.425
25704.000			-13.700			-3.425
25804.000			-13.696			-3.424
25903.000			-13.696			-3.424
26005.000			-13.695			-3.424
26104.000			-13.695			-3.424
26204.000			-13.693			-3.423
26305.000			-13.693			-3.423
26403.000			-13.692			-3.423
26504.000			-13.690			-3.423
26605.000			-13.690			-3.422
26704.000			-13.689			-3.422
26804.000			-13.688			-3.422
26905.000			-13.687			-3.422
27004.000			-13.685			-3.421
27103.000			-13.685			-3.421
27205.000			-13.684			-3.421
27304.000			-13.682			-3.421
27404.000			-13.683			-3.421
27505.000			-13.681			-3.420
27604.000			-13.679			-3.420
27704.000			-13.679			-3.420
27804.000			-13.679			-3.420
27904.000			-13.678			-3.419
28005.000			-13.676			-3.419
28104.000			-13.676			-3.419
28204.000			-13.674			-3.419
28305.000			-13.673			-3.418
28404.000			-13.673			-3.418
28503.000			-13.671			-3.418
28605.000			-13.671			-3.418
28704.000			-13.669			-3.417
28804.000			-13.669			-3.417
28905.000			-13.669			-3.417
29004.000			-13.667			-3.417
29104.000			-13.665			-3.416
29204.000			-13.664			-3.416
29304.000			-13.663			-3.416
29404.000			-13.663			-3.416
29505.000			-13.662			-3.415
29604.000			-13.661			-3.415
29704.000			-13.660			-3.415
29805.000			-13.660			-3.415
29904.000			-13.658			-3.415
30004.000			-13.658			-3.414
30104.000			-13.657			-3.414
30204.000			-13.656			-3.414
30304.000			-13.655			-3.414
30405.000			-13.655			-3.414
30504.000			-13.654			-3.413
30603.000			-13.653			-3.413
30705.000			-13.652			-3.413
30804.000			-13.650			-3.413
30904.000			-13.649			-3.412
31005.000			-13.649			-3.412
31104.000			-13.647			-3.412
31205.000			-13.646			-3.412
31303.000			-13.646			-3.412
31404.000			-13.646			-3.412
31505.000			-13.645			-3.411
31604.000			-13.644			-3.411
31704.000			-13.643			-3.411
31805.000			-13.642			-3.410
31904.000			-13.641			-3.410
32003.000			-13.640			-3.410
32105.000			-13.640			-3.410
32204.000			-13.639			-3.410
32304.000			-13.637			-3.409
32405.000			-13.636			-3.409
32503.000			-13.635			-3.409
32604.000			-13.635			-3.409
32705.000			-13.636			-3.409
32804.000			-13.635			-3.409
32904.000			-13.633			-3.408
33005.000			-13.632			-3.408
33104.000			-13.630			-3.408
33203.000			-13.629			-3.407
33305.000			-13.630			-3.407
33404.000			-13.629			-3.407
33504.000			-13.628			-3.407
33605.000			-13.627			-3.407
33704.000			-13.627			-3.407
33804.000			-13.625			-3.406
33904.000			-13.624			-3.406
34004.000			-13.624			-3.406
34104.000			-13.623			-3.406
34205.000			-13.622			-3.406
34304.000			-13.621			-3.405
34405.000			-13.620			-3.405
34504.000			-13.619			-3.405
34603.000			-13.618			-3.405
34705.000			-13.618			-3.405
34804.000			-13.618			-3.405
34904.000			-13.617			-3.404
35005.000			-13.616			-3.404
35104.000			-13.615			-3.404
35204.000			-13.615			-3.404
35305.000			-13.613			-3.403
35404.000			-13.613			-3.403
35504.000			-13.611			-3.403
35605.000			-13.612			-3.403
35704.000			-13.612			-3.403
35803.000			-13.610			-3.403
35905.000			-13.610			-3.403
36004.000			-13.608			-3.402
36104.000			-13.608			-3.402
36205.000			-13.607			-3.402
36304.000			-13.607			-3.402
36404.000			-13.605			-3.401
36504.000			-13.604			-3.401
36604.000			-13.602			-3.401
36704.000			-13.604			-3.401
36805.000			-13.603			-3.401
36904.000			-13.602			-3.401
37004.000			-13.601			-3.400
37105.000			-13.600			-3.400
37203.000			-13.599			-3.400
37304.000			-13.599			-3.400
37405.000			-13.597			-3.399
37504.000			-13.598			-3.399
37605.000			-13.597			-3.399
37704.000			-13.596			-3.399
37804.000			-13.596			-3.399
37904.000			-13.594			-3.398
38004.000			-13.593			-3.398
38104.000			-13.593			-3.398
38205.000			-13.592			-3.398
38304.000			-13.591			-3.398
38404.000			-13.591			-3.398
38505.000			-13.592			-3.398
38603.000			-13.590			-3.398
38704.000			-13.590			-3.397
38805.000			-13.589			-3.397
38904.000			-13.587			-3.397
39004.000			-13.586			-3.397
39105.000			-13.586			-3.396
39204.000			-13.585			-3.396
39303.000			-13.585			-3.396
39405.000			-13.584			-3.396
39504.000			-13.584			-3.396
39604.000			-13.583			-3.396
39705.000			-13.581			-3.395
39804.000			-13.580			-3.395
39904.000			-13.581			-3.395
40004.000			-13.580			-3.395
40104.000			-13.580			-3.395
40204.000			-13.579			-3.395
40305.000			-13.577			-3.394
40404.000			-13.575			-3.394
40503.000			-13.575			-3.394
40605.000			-13.575			-3.394
40704.000			-13.574			-3.394
40805.000			-13.573			-3.393
40904.000			-13.572			-3.393
41004.000			-13.574			-3.393
41105.000			-13.572			-3.393
41203.000			-13.572			-3.393
41304.000			-13.571			-3.393
41405.000			-13.570			-3.392
41504.000			-13.570			-3.392
41604.000			-13.568			-3.392
41705.000			-13.568			-3.392
41804.000			-13.568			-3.392
41903.000			-13.566			-3.392
42005.000			-13.565			-3.391
42104.000			-13.565			-3.391
42204.000			-13.566			-3.392
42305.000			-13.565			-3.391
42404.000			-13.563			-3.391
42504.000			-13.562			-3.391
42604.000			-13.562			-3.390
42704.000			-13.561			-3.390
42804.000			-13.561			-3.390
42905.000			-13.561			-3.390
43004.000			-13.560			-3.390
43104.000			-13.559			-3.390
43205.000			-13.558			-3.390
43303.000			-13.558			-3.390
43404.000			-13.557			-3.389
43505.000			-13.556			-3.389
43604.000			-13.555			-3.389
43704.000			-13.555			-3.389
43805.000			-13.555			-3.389
43904.000			-13.554			-3.388
44003.000			-13.554			-3.388
44104.000			-13.552			-3.388
44204.000			-13.550			-3.388
44305.000			-13.551			-3.388
44404.000			-13.550			-3.387
44504.000			-13.550			-3.387
44605.000			-13.549			-3.387
44703.000			-13.548			-3.387
44804.000			-13.549			-3.387
44905.000			-13.547			-3.387
45004.000			-13.546			-3.387
45104.000			-13.547			-3.387
45204.000			-13.546			-3.386
45304.000			-13.546			-3.386
45403.000			-13.545			-3.386
45505.000			-13.543			-3.386
45604.000			-13.543			-3.386
45704.000			-13.542			-3.386
45805.000			-13.541			-3.385
45903.000			-13.541			-3.385
46004.000			-13.541			-3.385
46105.000			-13.539			-3.385
46204.000			-13.538			-3.385
46304.000			-13.538			-3.385
46405.000			-13.539			-3.385
46504.000			-13.539			-3.385
46603.000			-13.538			-3.385
46705.000			-13.537			-3.384
46804.000			-13.536			-3.384
46904.000			-13.536			-3.384
47005.000			-13.534			-3.384
47104.000			-13.534			-3.383
47205.000			-13.533			-3.383
47303.000			-13.533			-3.383
47404.000			-13.533			-3.383
47505.000			-13.533			-3.383
47604.000			-13.531			-3.383
47704.000			-13.530			-3.383
47805.000			-13.530			-3.383
47904.000			-13.529			-3.382
48003.000			-13.530			-3.382
48105.000			-13.529			-3.382
48204.000			-13.528			-3.382
48304.000			-13.528			-3.382
48405.000			-13.527			-3.382
48504.000			-13.527			-3.382
48604.000			-13.526			-3.381
48704.000			-13.524			-3.381
48804.000			-13.523			-3.381
48904.000			-13.523			-3.381
49005.000			-13.522			-3.381
49104.000			-13.522			-3.380
49204.000			-13.521			-3.380
49305.000			-13.520			-3.380
49403.000			-13.520			-3.380
49504.000			-13.520			-3.380
49605.000			-13.519			-3.380
49704.000			-13.518			-3.380
49804.000			-13.519			-3.380
49905.000			-13.517			-3.379
50004.000			-13.517			-3.379
50103.000			-13.517			-3.379
50205.000			-13.516			-3.379
50304.000			-13.515			-3.379
50405.000			-13.515			-3.379
50504.000			-13.513			-3.378
50604.000			-13.513			-3.378
50705.000			-13.513			-3.378
50804.000			-13.512			-3.378
50904.000			-13.512			-3.378
51005.000			-13.512			-3.378
51104.000			-13.511			-3.378
51204.000			-13.510			-3.377
51304.000			-13.510			-3.377
51404.000			-13.509			-3.377
51504.000			-13.508			-3.377
51605.000			-13.508			-3.377
51704.000			-13.507			-3.377
51804.000			-13.507			-3.377
51905.000			-13.506			-3.376
52003.000			-13.505			-3.376
52104.000			-13.505			-3.376
52205.000			-13.505			-3.376
52304.000			-13.504			-3.376
52404.000			-13.504			-3.376
52504.000			-13.504			-3.376
52604.000			-13.504			-3.376
52704.000			-13.502			-3.375
52805.000			-13.501			-3.375
52904.000			-13.501			-3.375
53004.000			-13.501			-3.375
53105.000			-13.500			-3.375
53203.000			-13.499			-3.375
53304.000			-13.499			-3.375
53405.000			-13.499			-3.375
53504.000			-13.497			-3.374
53605.000			-13.496			-3.374
53704.000			-13.497			-3.374
53804.000			-13.496			-3.374
53904.000			-13.496			-3.374
54004.000			-13.495			-3.374
54104.000			-13.495			-3.374
54205.000			-13.494			-3.374
54304.000			-13.494			-3.374
54404.000			-13.493			-3.373
54505.000			-13.493			-3.373
54603.000			-13.492			-3.373
54704.000			-13.491			-3.373
54805.000			-13.492			-3.373
54904.000			-13.490			-3.373
55004.000			-13.490			-3.372
55105.000			-13.489			-3.372
55204.000			-13.488			-3.372
55303.000			-13.489			-3.372
55405.000			-13.489			-3.372
55504.000			-13.488			-3.372
55604.000			-13.487			-3.372
55705.000			-13.487			-3.372
55804.000			-13.486			-3.372
55904.000			-13.485			-3.371
56004.000			-13.484			-3.371
56104.000			-13.484			-3.371
56204.000			-13.484			-3.371
56305.000			-13.484			-3.371
56404.000			-13.483			-3.371
56504.000			-13.483			-3.371
56605.000			-13.483			-3.371
56703.000			-13.483			-3.371
56805.000			-13.481			-3.370
56904.000			-13.481			-3.370
57004.000			-13.480			-3.370
57105.000			-13.480			-3.370
57204.000			-13.480			-3.370
57304.000			-13.479			-3.370
57404.000			-13.478			-3.370
57504.000			-13.478			-3.369
57604.000			-13.477			-3.369
57705.000			-13.477			-3.369
57804.000			-13.476			-3.369
57904.000			-13.477			-3.369
58005.000			-13.476			-3.369
58103.000			-13.475			-3.369
58204.000			-13.474			-3.368
58305.000			-13.473			-3.368
58404.000			-13.473			-3.368
58504.000			-13.473			-3.368
58605.000			-13.472			-3.368
58704.000			-13.472			-3.368
58803.000			-13.472			-3.368
58905.000			-13.471			-3.368
59004.000			-13.470			-3.368
59104.000			-13.471			-3.368
59205.000			-13.470			-3.367
59304.000			-13.469			-3.367
59404.000			-13.468			-3.367
59504.000			-13.468			-3.367
59604.000			-13.468			-3.367
59704.000			-13.468			-3.367
59805.000			-13.467			-3.367
59904.000			-13.466			-3.367
60005.000			-13.465			-3.366
60104.000			-13.464			-3.366
60203.000			-13.465			-3.366
60305.000			-13.464			-3.366
60404.000			-13.463			-3.366
60504.000			-13.463			-3.366
60605.000			-13.462			-3.366
60704.000			-13.462			-3.365
60804.000			-13.462			-3.365
60905.000			-13.462			-3.366
61004.000			-13.461			-3.365
61104.000			-13.461			-3.365
61205.000			-13.460			-3.365
61304.000			-13.459			-3.365
61403.000			-13.458			-3.365
61505.000			-13.458			-3.364
61604.000			-13.457			-3.364
61704.000			-13.458			-3.364
61805.000			-13.457			-3.364
61904.000			-13.457			-3.364
62004.000			-13.457			-3.364
62104.000			-13.455			-3.364
62204.000			-13.455			-3.364
62304.000			-13.453			-3.363
62405.000			-13.453			-3.363
62504.000			-13.453			-3.363
62604.000			-13.452			-3.363
62705.000			-13.452			-3.363
62803.000			-13.451			-3.363
62904.000			-13.451			-3.363
63005.000			-13.451			-3.363
63104.000			-13.451			-3.363
63205.000			-13.450			-3.363
63304.000			-13.450			-3.363
63404.000			-13.449			-3.362
63504.000			-13.447			-3.362
63604.000			-13.447			-3.362
63704.000			-13.447			-3.362
63805.000			-13.447			-3.362
63904.000			-13.445			-3.361
64004.000			-13.445			-3.361
64105.000			-13.446			-3.361
64203.000			-13.445			-3.361
64304.000			-13.445			-3.361
64405.000			-13.444			-3.361
64504.000			-13.442			-3.360
64604.000			-13.442			-3.360
64704.000			-13.442			-3.361
64804.000			-13.442			-3.361
64903.000			-13.442			-3.361
65005.000			-13.440			-3.360
65104.000			-13.441			-3.360
65204.000			-13.440			-3.360
65305.000			-13.440			-3.360
65403.000			-13.439			-3.360
65504.000			-13.439			-3.360
65605.000			-13.439			-3.360
65704.000			-13.438			-3.360
65804.000			-13.438			-3.359
65905.000			-13.437			-3.359
66004.000			-13.437			-3.359
66103.000			-13.437			-3.359
66205.000			-13.436			-3.359
66304.000			-13.436			-3.359
66405.000			-13.436			-3.359
66504.000			-13.435			-3.359
66604.000			-13.434			-3.359
66705.000			-13.433			-3.358
66803.000			-13.434			-3.358
66904.000			-13.434			-3.359
67005.000			-13.433			-3.358
67104.000			-13.433			-3.358
67204.000			-13.432			-3.358
67305.000			-13.431			-3.358
67404.000			-13.429			-3.357
67503.000			-13.430			-3.358
67605.000			-13.431			-3.358
67704.000			-13.430			-3.357
67804.000			-13.430			-3.357
67905.000			-13.429			-3.357
68004.000			-13.428			-3.357
68104.000			-13.428			-3.357
68204.000			-13.427			-3.357
68304.000			-13.427			-3.357
68404.000			-13.427			-3.357
68505.000			-13.427			-3.357
68604.000			-13.427			-3.357
68704.000			-13.426			-3.357
68805.000			-13.425			-3.356
68903.000			-13.425			-3.356
69004.000			-13.425			-3.356
69105.000			-13.424			-3.356
69204.000			-13.425			-3.356
69304.000			-13.424			-3.356
69405.000			-13.423			-3.356
69504.000			-13.422			-3.356
69603.000			-13.421			-3.355
69704.000			-13.422			-3.355
69804.000			-13.422			-3.356
69905.000			-13.421			-3.355
70004.000			-13.420			-3.355
70104.000			-13.421			-3.355
70205.000			-13.420			-3.355
70303.000			-13.420			-3.355
70404.000			-13.419			-3.355
70505.000			-13.418			-3.355
70604.000			-13.417			-3.354
70704.000			-13.417			-3.354
70805.000			-13.416			-3.354
70904.000			-13.416			-3.354
71003.000			-13.415			-3.354
71105.000			-13.416			-3.354
71204.000			-13.416			-3.354
71304.000			-13.415			-3.354
71405.000			-13.415			-3.354
71503.000			-13.414			-3.353
71604.000			-13.413			-3.353
71705.000			-13.413			-3.353
71804.000			-13.412			-3.353
71904.000			-13.412			-3.353
72005.000			-13.412			-3.353
72104.000			-13.412			-3.353
72203.000			-13.410			-3.353
72305.000			-13.410			-3.352
72404.000			-13.409			-3.352
72504.000			-13.409			-3.352
72605.000			-13.409			-3.352
72704.000			-13.409			-3.352
72805.000			-13.408			-3.352
72903.000			-13.408			-3.352
73004.000			-13.407			-3.352
73105.000			-13.406			-3.352
73204.000			-13.406			-3.352
73304.000			-13.405			-3.351
73405.000			-13.405			-3.351
73504.000			-13.405			-3.351
73603.000			-13.405			-3.351
73705.000			-13.404			-3.351
73804.000			-13.404			-3.351
73904.000			-13.404			-3.351
74005.000			-13.403			-3.351
74104.000			-13.403			-3.351
74204.000			-13.404			-3.351
74304.000			-13.402			-3.351
74404.000			-13.403			-3.351
74504.000			-13.402			-3.350
74605.000			-13.401			-3.350
74704.000			-13.401			-3.350
74804.000			-13.401			-3.350
74905.000			-13.399			-3.350
75003.000			-13.399			-3.350
75104.000			-13.397			-3.349
75205.000			-13.398			-3.350
75304.000			-13.398			-3.349
75404.000			-13.397			-3.349
75505.000			-13.396			-3.349
75604.000			-13.396			-3.349
75703.000			-13.396			-3.349
75805.000			-13.396			-3.349
75904.000			-13.395			-3.349
76005.000			-13.395			-3.349
76104.000			-13.394			-3.349
76204.000			-13.394			-3.348
76305.000			-13.394			-3.348
76403.000			-13.393			-3.348
76504.000			-13.393			-3.348
76605.000			-13.393			-3.348
76704.000			-13.392			-3.348
76804.000			-13.391			-3.348
76905.000			-13.392			-3.348
77004.000			-13.391			-3.348
77103.000			-13.391			-3.348
77205.000			-13.390			-3.348
77304.000			-13.390			-3.348
77404.000			-13.389			-3.347
77505.000			-13.390			-3.347
77604.000			-13.390			-3.348
77704.000			-13.389			-3.347
77804.000			-13.388			-3.347
77904.000			-13.388			-3.347
78004.000			-13.387			-3.347
78105.000			-13.386			-3.347
78204.000			-13.386			-3.347
78304.000			-13.387			-3.347
78405.000			-13.386			-3.347
78503.000			-13.386			-3.347
78604.000			-13.387			-3.347
78705.000			-13.387			-3.347
78804.000			-13.385			-3.346
78904.000			-13.385			-3.346
79005.000			-13.385			-3.346
79104.000			-13.383			-3.346
79203.000			-13.383			-3.346
79304.000			-13.383			-3.346
79403.000			-13.383			-3.346
79505.000			-13.384			-3.346
79604.000			-13.383			-3.346
79704.000			-13.381			-3.345
79805.000			-13.380			-3.345
79904.000			-13.381			-3.345
80004.000			-13.381			-3.345
80104.000			-13.381			-3.345
80204.000			-13.380			-3.345
80304.000			-13.380			-3.345
80405.000			-13.380			-3.345
80504.000			-13.379			-3.345
80603.000			-13.379			-3.345
80705.000			-13.379			-3.345
80803.000			-13.379			-3.345
80904.000			-13.379			-3.345
81005.000			-13.376			-3.344
81104.000			-13.378			-3.344
81204.000			-13.378			-3.344
81305.000			-13.376			-3.344
81404.000			-13.376			-3.344
81503.000			-13.376			-3.344
81605.000			-13.376			-3.344
81704.000			-13.376			-3.344
81804.000			-13.375			-3.344
81905.000			-13.373			-3.343
82004.000			-13.374			-3.343
82104.000			-13.374			-3.344
82204.000			-13.373			-3.343
82304.000			-13.374			-3.343
82405.000			-13.372			-3.343
82504.000			-13.373			-3.343
82604.000			-13.372			-3.343
82705.000			-13.372			-3.343
82804.000			-13.372			-3.343
82903.000			-13.371			-3.343
83005.000			-13.370			-3.343
83104.000			-13.370			-3.343
83204.000			-13.369			-3.342
83305.000			-13.368			-3.342
83404.000			-13.368			-3.342
83504.000			-13.368			-3.342
83604.000			-13.367			-3.342
83704.000			-13.368			-3.342
83804.000			-13.367			-3.342
83905.000			-13.367			-3.342
84004.000			-13.367			-3.342
84104.000			-13.367			-3.342
84205.000			-13.366			-3.342
84303.000			-13.366			-3.341
84404.000			-13.365			-3.341
84505.000			-13.365			-3.341
84604.000			-13.365			-3.341
84704.000			-13.364			-3.341
84805.000			-13.362			-3.341
84904.000			-13.363			-3.341
85003.000			-13.364			-3.341
85105.000			-13.364			-3.341
85204.000			-13.363			-3.341
85304.000			-13.362			-3.340
85405.000			-13.361			-3.340
85504.000			-13.361			-3.340
85605.000			-13.361			-3.340
85703.000			-13.361			-3.340
85804.000			-13.359			-3.340
85905.000			-13.359			-3.340
86004.000			-13.359			-3.340
86104.000			-13.359			-3.340
86205.000			-13.359			-3.340
86304.000			-13.359			-3.340
86403.000			-13.359			-3.340
86505.000			-13.359			-3.340
86604.000			-13.359			-3.340
86704.000			-13.357			-3.339
86805.000			-13.356			-3.339
86904.000			-13.358			-3.339
87004.000			-13.358			-3.339
87104.000			-13.358			-3.339
87204.000			-13.357			-3.339
87304.000			-13.356			-3.339
87405.000			-13.355			-3.339
87504.000			-13.355			-3.339
87604.000			-13.354			-3.339
87705.000			-13.355			-3.339
87803.000			-13.354			-3.339
87904.000			-13.354			-3.339
88005.000			-13.355			-3.339
88104.000			-13.354			-3.339
88204.000			-13.352			-3.338
88305.000			-13.352			-3.338
88404.000			-13.352			-3.338
88503.000			-13.351			-3.338
88605.000			-13.352			-3.338
88704.000			-13.351			-3.338
88805.000			-13.351			-3.338
88904.000			-13.350			-3.337
89004.000			-13.351			-3.338
89105.000			-13.351			-3.338
89203.000			-13.350			-3.337
89304.000			-13.348			-3.337
89405.000			-13.348			-3.337
89504.000			-13.348			-3.337
89604.000			-13.348			-3.337
89705.000			-13.347			-3.337
89804.000			-13.347			-3.337
89903.000			-13.347			-3.337
90005.000			-13.347			-3.337
90104.000			-13.346			-3.337
90204.000			-13.345			-3.336
90305.000			-13.345			-3.336
90404.000			-13.346			-3.336
90504.000			-13.345			-3.336
90604.000			-13.345			-3.336
90704.000			-13.344			-3.336
90804.000			-13.344			-3.336
90905.000			-13.344			-3.336
91004.000			-13.345			-3.336
91104.000			-13.342			-3.336
91205.000			-13.343			-3.336
91303.000			-13.341			-3.335
91404.000			-13.342			-3.335
91505.000			-13.342			-3.336
91604.000			-13.342			-3.336
91704.000			-13.341			-3.335
91805.000			-13.341			-3.335
91904.000			-13.341			-3.335
92003.000			-13.340			-3.335
92104.000			-13.339			-3.335
92204.000			-13.339			-3.335
92305.000			-13.338			-3.335
92404.000			-13.338			-3.335
92504.000			-13.339			-3.335
92605.000			-13.338			-3.335
92703.000			-13.338			-3.334
92804.000			-13.338			-3.334
92905.000			-13.338			-3.335
93004.000			-13.338			-3.334
93104.000			-13.337			-3.334
93205.000			-13.336			-3.334
93304.000			-13.335			-3.334
93403.000			-13.335			-3.334
93505.000			-13.334			-3.334
93604.000			-13.335			-3.334
93704.000			-13.335			-3.334
93805.000			-13.334			-3.334
93904.000			-13.334			-3.333
94004.000			-13.334			-3.334
94104.000			-13.334			-3.333
94204.000			-13.332			-3.333
94304.000			-13.333			-3.333
94405.000			-13.334			-3.333
94504.000			-13.332			-3.333
94604.000			-13.333			-3.333
94705.000			-13.330			-3.333
94803.000			-13.330			-3.333
94904.000			-13.330			-3.332
95005.000			-13.330			-3.333
95104.000			-13.330			-3.332
95205.000			-13.328			-3.332
95304.000			-13.329			-3.332
95404.000			-13.328			-3.332
95504.000			-13.329			-3.332
95604.000			-13.329			-3.332
95704.000			-13.328			-3.332
95805.000			-13.328			-3.332
95904.000			-13.327			-3.332
96004.000			-13.327			-3.332
96105.000			-13.326			-3.332
96203.000			-13.326			-3.331
96304.000			-13.326			-3.332
96405.000			-13.325			-3.331
96504.000			-13.325			-3.331
96604.000			-13.326			-3.331
96705.000			-13.325			-3.331
96804.000			-13.324			-3.331
96903.000			-13.324			-3.331
97005.000			-13.325			-3.331
97104.000			-13.324			-3.331
97204.000			-13.324			-3.331
97305.000			-13.323			-3.331
97404.000			-13.323			-3.331
97504.000			-13.322			-3.331
97604.000			-13.322			-3.331
97704.000			-13.323			-3.331
97804.000			-13.321			-3.330
97905.000			-13.320			-3.330
98004.000			-13.320			-3.330
98104.000			-13.321			-3.330
98205.000			-13.321			-3.330
98303.000			-13.320			-3.330
98405.000			-13.319			-3.330
98504.000			-13.320			-3.330
98604.000			-13.320			-3.330
98705.000			-13.319			-3.330
98804.000			-13.318			-3.330
98904.000			-13.318			-3.329
99004.000			-13.318			-3.329
99104.000			-13.317			-3.329
99204.000			-13.317			-3.329
99305.000			-13.316			-3.329
99404.000			-13.316			-3.329
99504.000			-13.318			-3.329
99605.000			-13.317			-3.329
99703.000			-13.316			-3.329
99804.000			-13.316			-3.329
99905.000			-13.316			-3.329
100004.000			-13.315			-3.329
100104.000			-13.315			-3.329
100205.000			-13.315			-3.329
100304.000			-13.315			-3.329
100403.000			-13.315			-3.329
100505.000			-13.314			-3.328
100604.000			-13.314			-3.328
100704.000			-13.313			-3.328
100805.000			-13.313			-3.328
100904.000			-13.312			-3.328
101004.000			-13.313			-3.328
101104.000			-13.312			-3.328
101204.000			-13.312			-3.328
101304.000			-13.312			-3.328
101405.000			-13.311			-3.328
101504.000			-13.310			-3.327
101605.000			-13.311			-3.328
101704.000			-13.311			-3.328
101803.000			-13.311			-3.328
101905.000			-13.309			-3.327
102004.000			-13.309			-3.327
102104.000			-13.309			-3.327
102205.000			-13.308			-3.327
102304.000			-13.307			-3.327
102404.000			-13.307			-3.327
102504.000			-13.307			-3.327
102604.000			-13.307			-3.327
102704.000			-13.306			-3.327
102805.000			-13.307			-3.327
102904.000			-13.307			-3.327
103003.000			-13.306			-3.326
103105.000			-13.305			-3.326
103204.000			-13.306			-3.326
103304.000			-13.305			-3.326
103405.000			-13.304			-3.326
103504.000			-13.304			-3.326
103604.000			-13.304			-3.326
103704.000			-13.304			-3.326
103804.000			-13.304			-3.326
103903.000			-13.303			-3.326
104005.000			-13.303			-3.326
104104.000			-13.304			-3.326
104204.000			-13.304			-3.326
104305.000			-13.303			-3.326
104403.000			-13.303			-3.326
104504.000			-13.303			-3.326
104605.000			-13.302			-3.326
104704.000			-13.301			-3.325
104805.000			-13.301			-3.325
104904.000			-13.301			-3.325
105004.000			-13.300			-3.325
105104.000			-13.300			-3.325
105204.000			-13.300			-3.325
105304.000			-13.301			-3.325
105405.000			-13.300			-3.325
105504.000			-13.300			-3.325
105604.000			-13.299			-3.325
105705.000			-13.299			-3.325
105803.000			-13.299			-3.325
105904.000			-13.298			-3.325
106005.000			-13.297			-3.324
106104.000			-13.296			-3.324
106204.000			-13.296			-3.324
106305.000			-13.297			-3.324
106404.000			-13.295			-3.324
106503.000			-13.297			-3.324
106605.000			-13.297			-3.324
106704.000			-13.296			-3.324
106804.000			-13.296			-3.324
106905.000			-13.296			-3.324
107004.000			-13.295			-3.324
107104.000			-13.295			-3.324
107204.000			-13.295			-3.324
107304.000			-13.293			-3.323
107403.000			-13.293			-3.323
107505.000			-13.294			-3.324
107604.000			-13.294			-3.324
107704.000			-13.294			-3.323
107805.000			-13.294			-3.323
107904.000			-13.293			-3.323
108005.000			-13.292			-3.323
108103.000			-13.292			-3.323
108204.000			-13.291			-3.323
108305.000			-13.291			-3.323
108404.000			-13.291			-3.323
108504.000			-13.291			-3.323
108605.000			-13.291			-3.323
108704.000			-13.290			-3.323
108803.000			-13.289			-3.322
108905.000			-13.289			-3.322
109004.000			-13.289			-3.322
109104.000			-13.290			-3.322
109205.000			-13.289			-3.322
109304.000			-13.289			-3.322
109404.000			-13.288			-3.322
109504.000			-13.287			-3.322
109604.000			-13.287			-3.322
109703.000			-13.288			-3.322
109805.000			-13.286			-3.322
109904.000			-13.286			-3.322
110004.000			-13.286			-3.321
110105.000			-13.286			-3.321
110204.000			-13.286			-3.321
110304.000			-13.286			-3.322
110404.000			-13.285			-3.321
110504.000			-13.284			-3.321
110604.000			-13.286			-3.321
110705.000			-13.284			-3.321
110804.000			-13.284			-3.321
110904.000			-13.284			-3.321
111005.000			-13.283			-3.321
111103.000			-13.283			-3.321
111205.000			-13.283			-3.321
111304.000			-13.283			-3.321
111404.000			-13.282			-3.320
111505.000			-13.282			-3.320
111604.000			-13.282			-3.321
111704.000			-13.282			-3.320
111804.000			-13.281			-3.320
111904.000			-13.280			-3.320
112004.000			-13.280			-3.320
112105.000			-13.280			-3.320
112204.000			-13.280			-3.320
112304.000			-13.280			-3.320
112405.000			-13.280			-3.320
112503.000			-13.279			-3.320
112604.000			-13.278			-3.320
112705.000			-13.278			-3.320
112804.000			-13.278			-3.320
112904.000			-13.278			-3.320
113005.000			-13.277			-3.319
113104.000			-13.277			-3.319
113203.000			-13.278			-3.320
113305.000			-13.278			-3.320
113404.000			-13.276			-3.319
113504.000			-13.276			-3.319
113605.000			-13.276			-3.319
113704.000			-13.276			-3.319
113804.000			-13.275			-3.319
113904.000			-13.275			-3.319
114004.000			-13.276			-3.319
114104.000			-13.276			-3.319
114205.000			-13.275			-3.319
114304.000			-13.275			-3.319
114405.000			-13.275			-3.319
114504.000			-13.275			-3.319
114603.000			-13.275			-3.319
114705.000			-13.273			-3.318
114804.000			-13.274			-3.318
114904.000			-13.273			-3.318
115005.000			-13.272			-3.318
115104.000			-13.271			-3.318
115204.000			-13.272			-3.318
115304.000			-13.272			-3.318
115404.000			-13.271			-3.318
115503.000			-13.271			-3.318
115605.000			-13.271			-3.318
115704.000			-13.271			-3.318
115804.000			-13.272			-3.318
115905.000			-13.272			-3.318
116004.000			-13.271			-3.318
116104.000			-13.270			-3.317
116204.000			-13.269			-3.317
116304.000			-13.269			-3.317
116404.000			-13.269			-3.317
116505.000			-13.269			-3.317
116604.000			-13.269			-3.317
116704.000			-13.269			-3.317
116805.000			-13.268			-3.317
116903.000			-13.268			-3.317
117004.000			-13.267			-3.317
117105.000			-13.267			-3.317
117204.000			-13.267			-3.317
117304.000			-13.268			-3.317
117405.000			-13.269			-3.317
117504.000			-13.268			-3.317
117603.000			-13.267			-3.317
117704.000			-13.267			-3.317
117804.000			-13.266			-3.316
117905.000			-13.265			-3.316
118004.000			-13.265			-3.316
118104.000			-13.264			-3.316
118205.000			-13.264			-3.316
118303.000			-13.265			-3.316
118404.000			-13.264			-3.316
118505.000			-13.264			-3.316
118604.000			-13.264			-3.316
118704.000			-13.263			-3.316
118805.000			-13.263			-3.316
118904.000			-13.264			-3.316
119004.000			-13.263			-3.316
119105.000			-13.263			-3.316
119203.000			-13.262			-3.316
119304.000			-13.262			-3.315
119405.000			-13.263			-3.316
119504.000			-13.262			-3.315
119604.000			-13.261			-3.315
119705.000			-13.260			-3.315
119804.000			-13.260			-3.315
119903.000			-13.261			-3.315
120005.000			-13.261			-3.315
120104.000			-13.260			-3.315
120204.000			-13.260			-3.315
120305.000			-13.260			-3.315
120404.000			-13.260			-3.315
120504.000			-13.259			-3.315
120604.000			-13.258			-3.314
120704.000			-13.258			-3.314
120805.000			-13.258			-3.315
120904.000			-13.257			-3.314
121004.000			-13.257			-3.314
121105.000			-13.258			-3.314
121204.000			-13.257			-3.314
121303.000			-13.257			-3.314
121405.000			-13.257			-3.314
121504.000			-13.258			-3.314
121604.000			-13.256			-3.314
121705.000			-13.257			-3.314
121804.000			-13.256			-3.314
121904.000			-13.255			-3.314
122004.000			-13.255			-3.314
122104.000			-13.255			-3.314
122204.000			-13.255			-3.314
122305.000			-13.254			-3.314
122404.000			-13.255			-3.314
122504.000			-13.255			-3.314
122605.000			-13.254			-3.313
122703.000			-13.253			-3.313
122804.000			-13.253			-3.313
122905.000			-13.253			-3.313
123004.000			-13.252			-3.313
123104.000			-13.252			-3.313
123205.000			-13.252			-3.313
123304.000			-13.251			-3.313
123403.000			-13.251			-3.313
123505.000			-13.251			-3.313
123604.000			-13.250			-3.313
123704.000			-13.251			-3.313
123805.000			-13.250			-3.313
123904.000			-13.251			-3.313
124005.000			-13.251			-3.313
124103.000			-13.250			-3.313
124204.000			-13.250			-3.312
124305.000			-13.250			-3.312
124404.000			-13.248			-3.312
124504.000			-13.250			-3.312
124605.000			-13.249			-3.312
124704.000			-13.249			-3.312
124803.000			-13.248			-3.312
124905.000			-13.248			-3.312
125004.000			-13.247			-3.312
125104.000			-13.248			-3.312
125205.000			-13.248			-3.312
125304.000			-13.247			-3.312
125404.000			-13.246			-3.312
125504.000			-13.246			-3.311
125604.000			-13.246			-3.312
125704.000			-13.246			-3.312
125805.000			-13.247			-3.312
125904.000			-13.245			-3.311
126004.000			-13.245			-3.311
126105.000			-13.245			-3.311
126203.000			-13.245			-3.311
126304.000			-13.246			-3.312
126405.000			-13.246			-3.312
126504.000			-13.245			-3.311
126604.000			-13.245			-3.311
126705.000			-13.244			-3.311
126804.000			-13.245			-3.311
126903.000			-13.244			-3.311
127005.000			-13.244			-3.311
127104.000			-13.243			-3.311
127205.000			-13.242			-3.311
127304.000			-13.242			-3.311
127404.000			-13.242			-3.310
127505.000			-13.242			-3.310
127603.000			-13.242			-3.311
127704.000			-13.242			-3.311
127805.000			-13.242			-3.311
127904.000			-13.241			-3.310
128004.000			-13.241			-3.310
128105.000			-13.240			-3.310
128204.000			-13.240			-3.310
128303.000			-13.240			-3.310
128405.000			-13.240			-3.310
128504.000			-13.240			-3.310
128604.000			-13.240			-3.310
128705.000			-13.240			-3.310
128804.000			-13.239			-3.310
128904.000			-13.238			-3.310
129005.000			-13.238			-3.310
129104.000			-13.239			-3.310
129203.000			-13.238			-3.310
129305.000			-13.238			-3.309
129404.000			-13.239			-3.310
129504.000			-13.237			-3.309
129605.000			-13.237			-3.309
129704.000			-13.237			-3.309
129804.000			-13.236			-3.309
129904.000			-13.236			-3.309
130004.000			-13.236			-3.309
130104.000			-13.235			-3.309
130205.000			-13.235			-3.309
130304.000			-13.234			-3.309
130405.000			-13.235			-3.309
130504.000			-13.235			-3.309
130603.000			-13.234			-3.309
130705.000			-13.236			-3.309
130804.000			-13.235			-3.309
130904.000			-13.234			-3.309
131005.000			-13.234			-3.308
131104.000			-13.233			-3.308
131204.000			-13.233			-3.308
131304.000			-13.233			-3.308
131404.000			-13.232			-3.308
131504.000			-13.232			-3.308
131605.000			-13.233			-3.308
131704.000			-13.232			-3.308
131804.000			-13.232			-3.308
131905.000			-13.232			-3.308
132003.000			-13.231			-3.308
132104.000			-13.231			-3.308
132205.000			-13.231			-3.308
132304.000			-13.231			-3.308
132404.000			-13.231			-3.308
132505.000			-13.230			-3.308
132604.000			-13.230			-3.307
132704.000			-13.230			-3.308
132805.000			-13.229			-3.307
132903.000			-13.229			-3.307
133004.000			-13.230			-3.308
133105.000			-13.228			-3.307
133204.000			-13.228			-3.307
133304.000			-13.228			-3.307
133405.000			-13.228			-3.307
133504.000			-13.228			-3.307
133603.000			-13.228			-3.307
133704.000			-13.228			-3.307
133803.000			-13.227			-3.307
133905.000			-13.227			-3.307
134004.000			-13.227			-3.307
134104.000			-13.226			-3.307
134205.000			-13.225			-3.306
134304.000			-13.225			-3.306
134404.000			-13.226			-3.306
134504.000			-13.226			-3.307
134604.000			-13.225			-3.306
134704.000			-13.225			-3.306
134805.000			-13.224			-3.306
134904.000			-13.224			-3.306
135004.000			-13.223			-3.306
135105.000			-13.224			-3.306
135204.000			-13.224			-3.306
135304.000			-13.223			-3.306
135404.000			-13.223			-3.306
135504.000			-13.223			-3.306
135604.000			-13.223			-3.306
135705.000			-13.223			-3.306
135804.000			-13.223			-3.306
135904.000			-13.222			-3.305
136005.000			-13.221			-3.305
136103.000			-13.223			-3.306
136204.000			-13.222			-3.305
136305.000			-13.221			-3.305
136404.000			-13.221			-3.305
136504.000			-13.220			-3.305
136605.000			-13.220			-3.305
136704.000			-13.220			-3.305
136805.000			-13.220			-3.305
136904.000			-13.220			-3.305
137003.000			-13.220			-3.305
137105.000			-13.219			-3.305
137204.000			-13.220			-3.305
137304.000			-13.220			-3.305
137405.000			-13.219			-3.305
137504.000			-13.218			-3.304
137604.000			-13.217			-3.304
137704.000			-13.217			-3.304
137804.000			-13.217			-3.304
137903.000			-13.218			-3.305
138005.000			-13.218			-3.305
138104.000			-13.217			-3.304
138204.000			-13.217			-3.304
138305.000			-13.216			-3.304
138404.000			-13.215			-3.304
138504.000			-13.215			-3.304
138604.000			-13.216			-3.304
138704.000			-13.216			-3.304
138803.000			-13.216			-3.304
138905.000			-13.215			-3.304
139004.000			-13.215			-3.304
139104.000			-13.216			-3.304
139205.000			-13.215			-3.304
139304.000			-13.214			-3.303
139404.000			-13.214			-3.303
139504.000			-13.214			-3.304
139604.000			-13.213			-3.303
139704.000			-13.213			-3.303
139805.000			-13.213			-3.303
139904.000			-13.213			-3.303
140005.000			-13.213			-3.303
140104.000			-13.214			-3.303
140204.000			-13.214			-3.303
140305.000			-13.213			-3.303
140403.000			-13.212			-3.303
140504.000			-13.211			-3.303
140605.000			-13.211			-3.303
140704.000			-13.211			-3.303
140804.000			-13.211			-3.303
140905.000			-13.211			-3.303
141004.000			-13.211			-3.303
141103.000			-13.210			-3.303
141205.000			-13.211			-3.303
141304.000			-13.210			-3.302
141404.000			-13.209			-3.302
141505.000			-13.209			-3.302
141604.000			-13.210			-3.302
141704.000			-13.210			-3.302
141805.000			-13.210			-3.302
141904.000			-13.209			-3.302
142003.000			-13.208			-3.302
142105.000			-13.209			-3.302
142204.000			-13.208			-3.302
142304.000			-13.208			-3.302
142405.000			-13.208			-3.302
142504.000			-13.207			-3.302
142604.000			-13.207			-3.302
142704.000			-13.207			-3.302
142804.000			-13.207			-3.302
142903.000			-13.207			-3.302
143005.000			-13.206			-3.301
143104.000			-13.206			-3.301
143205.000			-13.206			-3.302
143304.000			-13.205			-3.301
143404.000			-13.205			-3.301
143505.000			-13.205			-3.301
143603.000			-13.205			-3.301
143704.000			-13.206			-3.302
143805.000			-13.204			-3.301
143904.000			-13.203			-3.301
144004.000			-13.204			-3.301
144105.000			-13.205			-3.301
144204.000			-13.204			-3.301
144304.000			-13.203			-3.301
144405.000			-13.204			-3.301
144503.000			-13.204			-3.301
144604.000			-13.203			-3.301
144705.000			-13.202			-3.301
144804.000			-13.203			-3.301
144904.000			-13.203			-3.301
145005.000			-13.203			-3.301
145104.000			-13.203			-3.301
145203.000			-13.202			-3.300
145305.000			-13.202			-3.301
145404.000			-13.201			-3.300
145504.000			-13.202			-3.300
145605.000			-13.201			-3.300
145704.000			-13.201			-3.300
145804.000			-13.201			-3.300
145905.000			-13.200			-3.300
146004.000			-13.200			-3.300
146103.000			-13.201			-3.300
146205.000			-13.200			-3.300
146304.000			-13.200			-3.300
146405.000			-13.200			-3.300
146504.000			-13.200			-3.300
146604.000			-13.200			-3.300
146705.000			-13.199			-3.300
146804.000			-13.199			-3.300
146904.000			-13.198			-3.299
147004.000			-13.198			-3.300
147104.000			-13.198			-3.300
147204.000			-13.198			-3.299
147305.000			-13.197			-3.299
147404.000			-13.197			-3.299
147504.000			-13.197			-3.299
147605.000			-13.198			-3.299
147704.000			-13.196			-3.299
147804.000			-13.197			-3.299
147904.000			-13.198			-3.299
148004.000			-13.197			-3.299
148104.000			-13.197			-3.299
148205.000			-13.197			-3.299
148304.000			-13.198			-3.299
148404.000			-13.196			-3.299
148505.000			-13.195			-3.299
148604.000			-13.196			-3.299
148704.000			-13.196			-3.299
148804.000			-13.195			-3.299
148904.000			-13.194			-3.298
149003.000			-13.194			-3.299
149105.000			-13.195			-3.299
149204.000			-13.195			-3.299
149304.000			-13.194			-3.298
149405.000			-13.194			-3.298
149504.000			-13.194			-3.298
149605.000			-13.193			-3.298
149703.000			-13.194			-3.298
149804.000			-13.194			-3.298
149904.000			-13.194			-3.298
150004.000			-13.193			-3.298
150104.000			-13.193			-3.298
150205.000			-13.192			-3.298
150304.000			-13.192			-3.298
150404.000			-13.192			-3.298
150505.000			-13.193			-3.298
150603.000			-13.191			-3.298
150704.000			-13.192			-3.298
150805.000			-13.192			-3.298
150904.000			-13.190			-3.298
151004.000			-13.190			-3.297
151105.000			-13.190			-3.297
151204.000			-13.190			-3.298
151304.000			-13.190			-3.298
151405.000			-13.191			-3.298
151503.000			-13.191			-3.298
151604.000			-13.191			-3.298
151705.000			-13.190			-3.298
151804.000			-13.189			-3.297
151904.000			-13.189			-3.297
152005.000			-13.190			-3.298
152104.000			-13.189			-3.297
152204.000			-13.188			-3.297
152305.000			-13.188			-3.297
152403.000			-13.188			-3.297
152504.000			-13.188			-3.297
152605.000			-13.187			-3.297
152704.000			-13.188			-3.297
152805.000			-13.187			-3.297
152904.000			-13.187			-3.297
153004.000			-13.186			-3.296
153105.000			-13.185			-3.296
153204.000			-13.185			-3.296
153303.000			-13.186			-3.297
153405.000			-13.186			-3.296
153504.000			-13.186			-3.297
153604.000			-13.186			-3.296
153705.000			-13.186			-3.296
153804.000			-13.185			-3.296
153904.000			-13.185			-3.296
154004.000			-13.184			-3.296
154104.000			-13.184			-3.296
154203.000			-13.184			-3.296
154305.000			-13.184			-3.296
154404.000			-13.184			-3.296
154504.000			-13.185			-3.296
154605.000			-13.184			-3.296
154704.000			-13.183			-3.296
154804.000			-13.182			-3.296
154904.000			-13.183			-3.296
155004.000			-13.182			-3.296
155103.000			-13.182			-3.295
155205.000			-13.182			-3.295
155304.000			-13.181			-3.295
155404.000			-13.181			-3.295
155505.000			-13.181			-3.295
155604.000			-13.181			-3.295
155704.000			-13.181			-3.295
155804.000			-13.180			-3.295
155904.000			-13.181			-3.295
156005.000			-13.180			-3.295
156104.000			-13.179			-3.295
156204.000			-13.180			-3.295
156305.000			-13.180			-3.295
156404.000			-13.179			-3.295
156504.000			-13.179			-3.295
156605.000			-13.179			-3.295
156703.000			-13.179			-3.295
156804.000			-13.179			-3.295
156905.000			-13.178			-3.295
157004.000			-13.177			-3.294
157104.000			-13.178			-3.294
157205.000			-13.178			-3.295
157304.000			-13.179			-3.295
157404.000			-13.177			-3.294
157505.000			-13.177			-3.294
157603.000			-13.177			-3.294
157704.000			-13.177			-3.294
157805.000			-13.178			-3.294
157904.000			-13.178			-3.294
158004.000			-13.177			-3.294
158105.000			-13.176			-3.294
158204.000			-13.176			-3.294
158304.000			-13.175			-3.294
158405.000			-13.176			-3.294
158503.000			-13.176			-3.294
158604.000			-13.176			-3.294
158705.000			-13.176			-3.294
158804.000			-13.175			-3.294
158904.000			-13.175			-3.294
159005.000			-13.175			-3.294
159104.000			-13.175			-3.294
159205.000			-13.174			-3.294
159304.000			-13.174			-3.294
159404.000			-13.173			-3.293
159505.000			-13.173			-3.293
159603.000			-13.173			-3.293
159704.000			-13.174			-3.293
159805.000			-13.174			-3.293
159904.000			-13.173			-3.293
160004.000			-13.173			-3.293
160105.000			-13.173			-3.293
160204.000			-13.172			-3.293
160304.000			-13.172			-3.293
160405.000			-13.172			-3.293
160503.000			-13.171			-3.293
160604.000			-13.171			-3.293
160705.000			-13.172			-3.293
160804.000			-13.172			-3.293
160904.000			-13.171			-3.293
161005.000			-13.171			-3.293
161104.000			-13.172			-3.293
161203.000			-13.172			-3.293
161305.000			-13.170			-3.293
161404.000			-13.170			-3.293
161504.000			-13.171			-3.293
161605.000			-13.172			-3.293
161704.000			-13.170			-3.293
161804.000			-13.170			-3.292
161905.000			-13.170			-3.293
162004.000			-13.170			-3.292
162103.000			-13.168			-3.292
162205.000			-13.170			-3.292
162304.000			-13.170			-3.293
162405.000			-13.169			-3.292
162504.000			-13.169			-3.292
162604.000			-13.169			-3.292
162705.000			-13.169			-3.292
162804.000			-13.168			-3.292
162904.000			-13.167			-3.292
163004.000			-13.167			-3.292
163104.000			-13.167			-3.292
163204.000			-13.168			-3.292
163305.000			-13.167			-3.292
163404.000			-13.166			-3.292
163504.000			-13.166			-3.292
163605.000			-13.165			-3.291
163704.000			-13.166			-3.292
163804.000			-13.166			-3.292
163904.000			-13.166			-3.291
164004.000			-13.165			-3.291
164104.000			-13.165			-3.291
164205.000			-13.166			-3.291
164304.000			-13.165			-3.291
164404.000			-13.165			-3.291
164505.000			-13.164			-3.291
164604.000			-13.164			-3.291
164704.000			-13.163			-3.291
164804.000			-13.163			-3.291
164904.000			-13.164			-3.291
165004.000			-13.164			-3.291
165105.000			-13.164			-3.291
165204.000			-13.163			-3.291
165304.000			-13.162			-3.291
165405.000			-13.162			-3.291
165503.000			-13.162			-3.290
165605.000			-13.162			-3.291
165703.000			-13.162			-3.291
165804.000			-13.163			-3.291
165905.000			-13.163			-3.291
166004.000			-13.162			-3.290
166104.000			-13.162			-3.290
166205.000			-13.161			-3.290
166304.000			-13.161			-3.290
166403.000			-13.162			-3.290
166505.000			-13.161			-3.290
166604.000			-13.160			-3.290
166704.000			-13.161			-3.290
166805.000			-13.160			-3.290
166904.000			-13.160			-3.290
167004.000			-13.159			-3.290
167105.000			-13.160			-3.290
167204.000			-13.159			-3.290
167303.000			-13.158			-3.289
167405.000			-13.159			-3.290
167504.000			-13.159			-3.290
167604.000			-13.159			-3.290
167705.000			-13.159			-3.290
167804.000			-13.160			-3.290
167904.000			-13.158			-3.289
168005.000			-13.158			-3.289
168104.000			-13.158			-3.289
168203.000			-13.157			-3.289
168305.000			-13.157			-3.289
168403.000			-13.157			-3.289
168504.000			-13.156			-3.289
168605.000			-13.156			-3.289
168704.000			-13.156			-3.289
168805.000			-13.157			-3.289
168904.000			-13.157			-3.289
169004.000			-13.157			-3.289
169104.000			-13.157			-3.289
169204.000			-13.157			-3.289
169303.000			-13.156			-3.289
169405.000			-13.156			-3.289
169504.000			-13.155			-3.289
169604.000			-13.155			-3.289
169705.000			-13.156			-3.289
169804.000			-13.156			-3.289
169904.000			-13.155			-3.289
170004.000			-13.154			-3.289
170104.000			-13.156			-3.289
170203.000			-13.155			-3.289
170305.000			-13.154			-3.289
170404.000			-13.154			-3.289
170504.000			-13.154			-3.288
170605.000			-13.153			-3.288
170704.000			-13.154			-3.288
170804.000			-13.153			-3.288
170904.000			-13.153			-3.288
171004.000			-13.153			-3.288
171104.000			-13.153			-3.288
171205.000			-13.152			-3.288
171304.000			-13.153			-3.288
171404.000			-13.153			-3.288
171505.000			-13.153			-3.288
171604.000			-13.151			-3.288
171704.000			-13.151			-3.288
171804.000			-13.152			-3.288
171904.000			-13.151			-3.288
172005.000			-13.152			-3.288
172104.000			-13.152			-3.288
172204.000			-13.152			-3.288
172305.000			-13.150			-3.288
172404.000			-13.151			-3.288
172503.000			-13.150			-3.288
172605.000			-13.150			-3.288
172704.000			-13.150			-3.287
172804.000			-13.150			-3.287
172905.000			-13.150			-3.287
173004.000			-13.149			-3.287
173104.000			-13.149			-3.287
173205.000			-13.149			-3.287
173304.000			-13.149			-3.287
173403.000			-13.148			-3.287
173505.000			-13.148			-3.287
173604.000			-13.149			-3.287
173704.000			-13.148			-3.287
173805.000			-13.147			-3.287
173904.000			-13.146			-3.287
174004.000			-13.146			-3.287
174105.000			-13.147			-3.287
174204.000			-13.147			-3.287
174303.000			-13.146			-3.287
174405.000			-13.146			-3.287
174504.000			-13.146			-3.287
174604.000			-13.147			-3.287
174705.000			-13.146			-3.286
174804.000			-13.146			-3.286
174904.000			-13.145			-3.286
175005.000			-13.145			-3.286
175104.000			-13.144			-3.286
175203.000			-13.145			-3.286
175304.000			-13.145			-3.286
175404.000			-13.145			-3.286
175505.000			-13.144			-3.286
175604.000			-13.145			-3.286
175704.000			-13.144			-3.286
175805.000			-13.144			-3.286
175904.000			-13.144			-3.286
176004.000			-13.144			-3.286
176104.000			-13.143			-3.286
176204.000			-13.144			-3.286
176304.000			-13.143			-3.286
176405.000			-13.142			-3.285
176504.000			-13.142			-3.286
176604.000			-13.142			-3.285
176705.000			-13.141			-3.285
176803.000			-13.142			-3.285
176904.000			-13.142			-3.285
177004.000			-13.142			-3.285
177104.000			-13.141			-3.285
177204.000			-13.141			-3.285
177305.000			-13.140			-3.285
177404.000			-13.140			-3.285
177504.000			-13.140			-3.285
177605.000			-13.140			-3.285
177703.000			-13.139			-3.285
177804.000			-13.139			-3.285
177904.000			-13.139			-3.285
178004.000			-13.139			-3.285
178104.000			-13.139			-3.285
178205.000			-13.138			-3.285
178304.000			-13.138			-3.285
178405.000			-13.139			-3.285
178504.000			-13.138			-3.285
178603.000			-13.138			-3.284
178705.000			-13.138			-3.284
178803.000			-13.138			-3.284
178904.000			-13.138			-3.284
179005.000			-13.138			-3.284
179104.000			-13.137			-3.284
179204.000			-13.136			-3.284
179305.000			-13.135			-3.284
179404.000			-13.136			-3.284
179503.000			-13.136			-3.284
179605.000			-13.137			-3.284
179703.000			-13.136			-3.284
179804.000			-13.135			-3.284
179905.000			-13.135			-3.284
180004.000			-13.135			-3.284
180104.000			-13.135			-3.284
180205.000			-13.135			-3.284
180304.000			-13.135			-3.284
180403.000			-13.134			-3.284
180505.000			-13.134			-3.284
180604.000			-13.135			-3.284
180704.000			-13.134			-3.283
180805.000			-13.134			-3.283
180904.000			-13.134			-3.283
181004.000			-13.132			-3.283
181105.000			-13.132			-3.283
181204.000			-13.133			-3.283
181303.000			-13.133			-3.283
181405.000			-13.133			-3.283
181504.000			-13.133			-3.283
181605.000			-13.132			-3.283
181704.000			-13.132			-3.283
181804.000			-13.131			-3.283
181905.000			-13.132			-3.283
182004.000			-13.132			-3.283
182104.000			-13.131			-3.283
182204.000			-13.131			-3.283
182304.000			-13.131			-3.283
182404.000			-13.131			-3.283
182505.000			-13.130			-3.282
182604.000			-13.130			-3.283
182704.000			-13.131			-3.283
182805.000			-13.130			-3.282
182903.000			-13.129			-3.282
183004.000			-13.129			-3.282
183104.000			-13.129			-3.282
183204.000			-13.131			-3.283
183304.000			-13.130			-3.283
183405.000			-13.129			-3.282
183504.000			-13.129			-3.282
183604.000			-13.128			-3.282
183705.000			-13.128			-3.282
183803.000			-13.129			-3.282
183904.000			-13.129			-3.282
184005.000			-13.129			-3.282
184104.000			-13.128			-3.282
184204.000			-13.127			-3.282
184305.000			-13.128			-3.282
184404.000			-13.127			-3.282
184504.000			-13.128			-3.282
184605.000			-13.127			-3.282
184703.000			-13.127			-3.282
184805.000			-13.126			-3.282
184904.000			-13.126			-3.281
185004.000			-13.127			-3.282
185105.000			-13.128			-3.282
185204.000			-13.127			-3.282
185304.000			-13.126			-3.281
185405.000			-13.125			-3.281
185504.000			-13.126			-3.281
185603.000			-13.125			-3.281
185705.000			-13.126			-3.281
185804.000			-13.126			-3.281
185904.000			-13.125			-3.281
186005.000			-13.125			-3.281
186104.000			-13.125			-3.281
186204.000			-13.125			-3.281
186305.000			-13.124			-3.281
186404.000			-13.123			-3.281
186503.000			-13.124			-3.281
186605.000			-13.124			-3.281
186704.000			-13.123			-3.281
186804.000			-13.124			-3.281
186905.000			-13.124			-3.281
187004.000			-13.124			-3.281
187104.000			-13.123			-3.281
187205.000			-13.123			-3.281
187304.000			-13.123			-3.281
187403.000			-13.122			-3.281
187505.000			-13.123			-3.281
187604.000			-13.121			-3.280
187704.000			-13.122			-3.280
187805.000			-13.124			-3.281
187904.000			-13.122			-3.281
188005.000			-13.122			-3.281
188103.000			-13.122			-3.281
188204.000			-13.122			-3.281
188304.000			-13.121			-3.280
188404.000			-13.121			-3.280
188504.000			-13.120			-3.280
188605.000			-13.120			-3.280
188704.000			-13.120			-3.280
188804.000			-13.121			-3.280
188905.000			-13.121			-3.280
189003.000			-13.120			-3.280
189104.000			-13.120			-3.280
189205.000			-13.120			-3.280
189304.000			-13.121			-3.280
189404.000			-13.120			-3.280
189505.000			-13.119			-3.280
189604.000			-13.119			-3.280
189704.000			-13.119			-3.280
189805.000			-13.118			-3.280
189903.000			-13.118			-3.280
190004.000			-13.118			-3.280
190105.000			-13.118			-3.279
190204.000			-13.118			-3.279
190304.000			-13.118			-3.280
190405.000			-13.118			-3.279
190504.000			-13.117			-3.279
190604.000			-13.118			-3.280
190705.000			-13.118			-3.279
190803.000			-13.117			-3.279
190904.000			-13.117			-3.279
191005.000			-13.117			-3.279
191104.000			-13.116			-3.279
191205.000			-13.117			-3.279
191304.000			-13.117			-3.279
191404.000			-13.116			-3.279
191505.000			-13.115			-3.279
191604.000			-13.115			-3.279
191703.000			-13.115			-3.279
191805.000			-13.115			-3.279
191904.000			-13.115			-3.279
192004.000			-13.115			-3.279
192105.000			-13.115			-3.279
192204.000			-13.114			-3.279
192304.000			-13.115			-3.279
192404.000			-13.116			-3.279
192504.000			-13.115			-3.279
192603.000			-13.115			-3.279
192705.000			-13.114			-3.279
192804.000			-13.113			-3.278
192904.000			-13.113			-3.278
193005.000			-13.114			-3.278
193104.000			-13.114			-3.279
193204.000			-13.114			-3.279
193304.000			-13.115			-3.279
193404.000			-13.113			-3.278
193504.000			-13.112			-3.278
193605.000			-13.113			-3.278
193704.000			-13.113			-3.278
193804.000			-13.113			-3.278
193905.000			-13.112			-3.278
194004.000			-13.112			-3.278
194104.000			-13.111			-3.278
194204.000			-13.111			-3.278
194304.000			-13.112			-3.278
194405.000			-13.112			-3.278
194504.000			-13.112			-3.278
194604.000			-13.112			-3.278
194705.000			-13.110			-3.278
194804.000			-13.110			-3.278
194903.000			-13.111			-3.278
195005.000			-13.110			-3.278
195103.000			-13.109			-3.277
195204.000			-13.110			-3.277
195305.000			-13.110			-3.277
195404.000			-13.109			-3.277
195504.000			-13.108			-3.277
195605.000			-13.109			-3.277
195704.000			-13.108			-3.277
195803.000			-13.109			-3.277
195905.000			-13.109			-3.277
196003.000			-13.108			-3.277
196104.000			-13.108			-3.277
196205.000			-13.109			-3.277
196304.000			-13.107			-3.277
196404.000			-13.107			-3.277
196505.000			-13.109			-3.277
196604.000			-13.108			-3.277
196703.000			-13.108			-3.277
196805.000			-13.107			-3.277
196903.000			-13.106			-3.277
197004.000			-13.106			-3.277
197105.000			-13.106			-3.276
197204.000			-13.105			-3.276
197304.000			-13.106			-3.277
197405.000			-13.106			-3.277
197504.000			-13.106			-3.276
197603.000			-13.106			-3.276
197704.000			-13.106			-3.277
197803.000			-13.106			-3.277
197905.000			-13.106			-3.276
198004.000			-13.105			-3.276
198104.000			-13.105			-3.276
198205.000			-13.105			-3.276
198304.000			-13.105			-3.276
198404.000			-13.105			-3.276
198504.000			-13.105			-3.276
198604.000			-13.105			-3.276
198704.000			-13.105			-3.276
198805.000			-13.104			-3.276
198904.000			-13.104			-3.276
199004.000			-13.104			-3.276
199105.000			-13.103			-3.276
199204.000			-13.103			-3.276
199304.000			-13.104			-3.276
199404.000			-13.103			-3.276
199504.000			-13.102			-3.276
199604.000			-13.102			-3.276
199705.000			-13.102			-3.276
199804.000			-13.103			-3.276
199904.000			-13.102			-3.276
200005.000			-13.103			-3.276
200104.000			-13.103			-3.276
200204.000			-13.102			-3.275
200304.000			-13.102			-3.276
200404.000			-13.102			-3.276
200504.000			-13.101			-3.275
200605.000			-13.102			-3.275
200704.000			-13.102			-3.275
200805.000			-13.101			-3.275
200904.000			-13.102			-3.275
201003.000			-13.102			-3.275
201105.000			-13.100			-3.275
201204.000			-13.100			-3.275
201304.000			-13.100			-3.275
201405.000			-13.100			-3.275
201504.000			-13.099			-3.275
201604.000			-13.099			-3.275
201704.000			-13.100			-3.275
201804.000			-13.100			-3.275
201903.000			-13.099			-3.275
202005.000			-13.100			-3.275
202104.000			-13.099			-3.275
202204.000			-13.099			-3.275
202305.000			-13.099			-3.275
202404.000			-13.099			-3.275
202504.000			-13.098			-3.275
202604.000			-13.099			-3.275
202704.000			-13.099			-3.275
202804.000			-13.099			-3.275
202905.000			-13.098			-3.275
203004.000			-13.098			-3.275
203104.000			-13.098			-3.274
203205.000			-13.097			-3.274
203304.000			-13.097			-3.274
203404.000			-13.097			-3.274
203504.000			-13.097			-3.274
203604.000			-13.096			-3.274
203704.000			-13.095			-3.274
203805.000			-13.096			-3.274
203904.000			-13.096			-3.274
204005.000			-13.096			-3.274
204104.000			-13.096			-3.274
204204.000			-13.095			-3.274
204305.000			-13.095			-3.274
204403.000			-13.096			-3.274
204504.000			-13.096			-3.274
204605.000			-13.095			-3.274
204704.000			-13.095			-3.274
204804.000			-13.095			-3.274
204905.000			-13.095			-3.274
205004.000			-13.094			-3.274
205103.000			-13.094			-3.274
205205.000			-13.095			-3.274
205303.000			-13.095			-3.274
205404.000			-13.094			-3.274
205505.000			-13.094			-3.273
205604.000			-13.094			-3.273
205704.000			-13.094			-3.273
205805.000			-13.095			-3.274
205904.000			-13.095			-3.274
206003.000			-13.094			-3.273
206105.000			-13.094			-3.273
206204.000			-13.093			-3.273
206304.000			-13.094			-3.273
206405.000			-13.094			-3.273
206504.000			-13.092			-3.273
206604.000			-13.092			-3.273
206705.000			-13.092			-3.273
206804.000			-13.092			-3.273
206903.000			-13.092			-3.273
207005.000			-13.091			-3.273
207104.000			-13.092			-3.273
207205.000			-13.092			-3.273
207304.000			-13.092			-3.273
207404.000			-13.092			-3.273
207505.000			-13.092			-3.273
207604.000			-13.092			-3.273
207704.000			-13.091			-3.273
207804.000			-13.090			-3.272
207904.000			-13.091			-3.273
208004.000			-13.090			-3.273
208105.000			-13.090			-3.272
208204.000			-13.090			-3.273
208304.000			-13.089			-3.272
208405.000			-13.090			-3.273
208503.000			-13.090			-3.273
208604.000			-13.090			-3.272
208704.000			-13.089			-3.272
208804.000			-13.088			-3.272
208904.000			-13.089			-3.272
209005.000			-13.089			-3.272
209104.000			-13.088			-3.272
209204.000			-13.089			-3.272
209305.000			-13.089			-3.272
209403.000			-13.088			-3.272
209504.000			-13.088			-3.272
209604.000			-13.087			-3.272
209704.000			-13.086			-3.272
209804.000			-13.087			-3.272
209905.000			-13.087			-3.272
210004.000			-13.086			-3.272
210104.000			-13.087			-3.272
210205.000			-13.086			-3.272
210303.000			-13.086			-3.272
210405.000			-13.086			-3.271
210504.000			-13.086			-3.271
210604.000			-13.086			-3.271
210705.000			-13.086			-3.272
210804.000			-13.086			-3.271
210904.000			-13.087			-3.272
211005.000			-13.086			-3.272
211104.000			-13.085			-3.271
211203.000			-13.086			-3.271
211305.000			-13.085			-3.271
211404.000			-13.084			-3.271
211504.000			-13.086			-3.271
211605.000			-13.085			-3.271
211704.000			-13.084			-3.271
211804.000			-13.084			-3.271
211904.000			-13.084			-3.271
212004.000			-13.084			-3.271
212103.000			-13.084			-3.271
212205.000			-13.083			-3.271
212304.000			-13.083			-3.271
212404.000			-13.084			-3.271
212505.000			-13.084			-3.271
212604.000			-13.084			-3.271
212704.000			-13.084			-3.271
212804.000			-13.083			-3.271
212904.000			-13.083			-3.271
213004.000			-13.083			-3.271
213105.000			-13.083			-3.271
213204.000			-13.082			-3.271
213304.000			-13.082			-3.271
213405.000			-13.082			-3.270
213503.000			-13.082			-3.270
213605.000			-13.082			-3.271
213703.000			-13.082			-3.270
213804.000			-13.082			-3.271
213905.000			-13.082			-3.271
214004.000			-13.082			-3.270
214104.000			-13.082			-3.270
214205.000			-13.081			-3.270
214304.000			-13.080			-3.270
214403.000			-13.081			-3.270
214505.000			-13.080			-3.270
214604.000			-13.080			-3.270
214704.000			-13.080			-3.270
214805.000			-13.080			-3.270
214904.000			-13.079			-3.270
215004.000			-13.079			-3.270
215105.000			-13.080			-3.270
215204.000			-13.078			-3.270
215303.000			-13.078			-3.270
215405.000			-13.078			-3.270
215504.000			-13.078			-3.269
215604.000			-13.077			-3.269
215705.000			-13.078			-3.269
215804.000			-13.078			-3.270
215904.000			-13.078			-3.270
216004.000			-13.079			-3.270
216104.000			-13.079			-3.270
216203.000			-13.079			-3.270
216305.000			-13.078			-3.270
216404.000			-13.078			-3.269
216504.000			-13.078			-3.269
216605.000			-13.078			-3.270
216704.000			-13.077			-3.269
216805.000			-13.077			-3.269
216903.000			-13.078			-3.269
217004.000			-13.078			-3.270
217104.000			-13.078			-3.269
217204.000			-13.077			-3.269
217304.000			-13.076			-3.269
217405.000			-13.076			-3.269
217504.000			-13.075			-3.269
217604.000			-13.075			-3.269
217705.000			-13.075			-3.269
217803.000			-13.075			-3.269
217904.000			-13.076			-3.269
218004.000			-13.075			-3.269
218104.000			-13.075			-3.269
218204.000			-13.074			-3.269
218305.000			-13.074			-3.269
218404.000			-13.074			-3.268
218504.000			-13.074			-3.269
218605.000			-13.074			-3.268
218703.000			-13.073			-3.268
218804.000			-13.073			-3.268
218905.000			-13.074			-3.269
219004.000			-13.074			-3.268
219104.000			-13.074			-3.268
219205.000			-13.074			-3.269
219304.000			-13.075			-3.269
219404.000			-13.073			-3.268
219505.000			-13.073			-3.268
219603.000			-13.073			-3.268
219704.000			-13.073			-3.268
219805.000			-13.073			-3.268
219904.000			-13.073			-3.268
220005.000			-13.072			-3.268
220104.000			-13.072			-3.268
220204.000			-13.072			-3.268
220304.000			-13.071			-3.268
220404.000			-13.072			-3.268
220503.000			-13.072			-3.268
220605.000			-13.072			-3.268
220704.000			-13.071			-3.268
220804.000			-13.071			-3.268
220905.000			-13.072			-3.268
221004.000			-13.072			-3.268
221104.000			-13.072			-3.268
221204.000			-13.072			-3.268
221304.000			-13.072			-3.268
221404.000			-13.072			-3.268
221505.000			-13.071			-3.268
221604.000			-13.070			-3.268
221704.000			-13.070			-3.267
221805.000			-13.071			-3.268
221903.000			-13.070			-3.268
222004.000			-13.070			-3.267
222104.000			-13.069			-3.267
222204.000			-13.069			-3.267
222304.000			-13.068			-3.267
222405.000			-13.069			-3.267
222504.000			-13.069			-3.267
222604.000			-13.070			-3.267
222705.000			-13.070			-3.267
222803.000			-13.070			-3.267
222904.000			-13.069			-3.267
223005.000			-13.068			-3.267
223104.000			-13.068			-3.267
223205.000			-13.069			-3.267
223304.000			-13.068			-3.267
223404.000			-13.067			-3.267
223505.000			-13.067			-3.267
223604.000			-13.067			-3.267
223703.000			-13.068			-3.267
223805.000			-13.067			-3.267
223904.000			-13.068			-3.267
224004.000			-13.067			-3.267
224105.000			-13.067			-3.267
224204.000			-13.068			-3.267
224304.000			-13.067			-3.267
224405.000			-13.067			-3.267
224504.000			-13.066			-3.267
224603.000			-13.066			-3.266
224705.000			-13.066			-3.266
224804.000			-13.065			-3.266
224904.000			-13.066			-3.266
225005.000			-13.066			-3.267
225104.000			-13.066			-3.266
225204.000			-13.066			-3.266
225305.000			-13.065			-3.266
225404.000			-13.065			-3.266
225503.000			-13.066			-3.266
225605.000			-13.066			-3.266
225704.000			-13.065			-3.266
225804.000			-13.064			-3.266
225905.000			-13.066			-3.266
226004.000			-13.065			-3.266
226104.000			-13.063			-3.266
226204.000			-13.063			-3.266
226304.000			-13.063			-3.266
226403.000			-13.063			-3.266
226504.000			-13.063			-3.266
226604.000			-13.064			-3.266
226705.000			-13.063			-3.266
226804.000			-13.063			-3.266
226904.000			-13.064			-3.266
227005.000			-13.064			-3.266
227103.000			-13.063			-3.266
227204.000			-13.062			-3.265
227305.000			-13.062			-3.266
227404.000			-13.063			-3.266
227504.000			-13.062			-3.266
227605.000			-13.062			-3.266
227704.000			-13.062			-3.265
227804.000			-13.063			-3.266
227905.000			-13.061			-3.265
228003.000			-13.061			-3.265
228104.000			-13.061			-3.265
228205.000			-13.061			-3.265
228304.000			-13.060			-3.265
228404.000			-13.061			-3.265
228505.000			-13.060			-3.265
228604.000			-13.060			-3.265
228703.000			-13.059			-3.265
228805.000			-13.060			-3.265
228903.000			-13.061			-3.265
229004.000			-13.059			-3.265
229105.000			-13.059			-3.265
229204.000			-13.061			-3.265
229304.000			-13.060			-3.265
229405.000			-13.059			-3.265
229504.000			-13.058			-3.265
229603.000			-13.059			-3.265
229704.000			-13.059			-3.265
229803.000			-13.059			-3.265
229905.000			-13.059			-3.265
230004.000			-13.059			-3.265
230104.000			-13.058			-3.265
230205.000			-13.057			-3.264
230304.000			-13.057			-3.264
230404.000			-13.058			-3.265
230504.000			-13.058			-3.264
230604.000			-13.057			-3.264
230704.000			-13.057			-3.264
230805.000			-13.057			-3.264
230904.000			-13.056			-3.264
231004.000			-13.056			-3.264
231105.000			-13.055			-3.264
231204.000			-13.056			-3.264
231304.000			-13.056			-3.264
231404.000			-13.056			-3.264
231504.000			-13.056			-3.264
231604.000			-13.056			-3.264
231705.000			-13.055			-3.264
231804.000			-13.056			-3.264
231904.000			-13.055			-3.264
232005.000			-13.055			-3.264
232103.000			-13.055			-3.264
232204.000			-13.054			-3.263
232305.000			-13.054			-3.263
232404.000			-13.054			-3.263
232504.000			-13.055			-3.264
232605.000			-13.055			-3.264
232704.000			-13.053			-3.263
232805.000			-13.053			-3.263
232904.000			-13.054			-3.264
233003.000			-13.054			-3.263
233105.000			-13.053			-3.263
233204.000			-13.052			-3.263
233304.000			-13.054			-3.264
233405.000			-13.053			-3.263
233504.000			-13.052			-3.263
233604.000			-13.052			-3.263
233704.000			-13.052			-3.263
233804.000			-13.053			-3.263
233904.000			-13.053			-3.263
234005.000			-13.052			-3.263
234104.000			-13.052			-3.263
234204.000			-13.053			-3.263
234305.000			-13.052			-3.263
234404.000			-13.052			-3.263
234504.000			-13.052			-3.263
234604.000			-13.051			-3.263
234704.000			-13.050			-3.262
234804.000			-13.051			-3.263
234905.000			-13.051			-3.263
235004.000			-13.051			-3.263
235104.000			-13.051			-3.263
235205.000			-13.050			-3.263
235303.000			-13.051			-3.263
235404.000			-13.050			-3.263
235505.000			-13.051			-3.263
235604.000			-13.050			-3.263
235704.000			-13.050			-3.262
235805.000			-13.050			-3.262
235904.000			-13.050			-3.262
236005.000			-13.049			-3.262
236104.000			-13.049			-3.262
236203.000			-13.049			-3.262
236305.000			-13.049			-3.262
236404.000			-13.047			-3.262
236504.000			-13.049			-3.262
236605.000			-13.050			-3.263
236704.000			-13.049			-3.262
236804.000			-13.049			-3.262
236905.000			-13.049			-3.262
237004.000			-13.049			-3.262
237103.000			-13.048			-3.262
237205.000			-13.048			-3.262
237304.000			-13.047			-3.262
237404.000			-13.048			-3.262
237505.000			-13.048			-3.262
237604.000			-13.048			-3.262
237704.000			-13.048			-3.262
237804.000			-13.047			-3.262
237904.000			-13.046			-3.262
238003.000			-13.046			-3.262
238105.000			-13.046			-3.262
238204.000			-13.046			-3.262
238304.000			-13.047			-3.262
238405.000			-13.046			-3.262
238504.000			-13.046			-3.262
238604.000			-13.046			-3.261
238704.000			-13.046			-3.262
238804.000			-13.046			-3.262
238903.000			-13.046			-3.262
239005.000			-13.046			-3.261
239104.000			-13.046			-3.262
239205.000			-13.046			-3.261
239304.000			-13.045			-3.261
239404.000			-13.044			-3.261
239505.000			-13.044			-3.261
239604.000			-13.045			-3.261
239704.000			-13.044			-3.261
239804.000			-13.044			-3.261
239904.000			-13.044			-3.261
240004.000			-13.043			-3.261
240105.000			-13.044			-3.261
240204.000			-13.045			-3.261
240304.000			-13.044			-3.261
240405.000			-13.044			-3.261
240503.000			-13.044			-3.261
240604.000			-13.044			-3.261
240705.000			-13.044			-3.261
240804.000			-13.043			-3.261
240904.000			-13.044			-3.261
241005.000			-13.042			-3.261
241104.000			-13.042			-3.261
241204.000			-13.042			-3.260
241305.000			-13.042			-3.261
241403.000			-13.042			-3.261
241504.000			-13.041			-3.260
241605.000			-13.043			-3.261
241704.000			-13.043			-3.261
241804.000			-13.042			-3.260
241905.000			-13.041			-3.260
242004.000			-13.041			-3.260
242103.000			-13.041			-3.260
242205.000			-13.041			-3.260
242304.000			-13.041			-3.260
242405.000			-13.042			-3.260
242504.000			-13.041			-3.260
242604.000			-13.042			-3.260
242705.000			-13.042			-3.260
242804.000			-13.040			-3.260
242904.000			-13.040			-3.260
243004.000			-13.039			-3.260
243104.000			-13.039			-3.260
243204.000			-13.040			-3.260
243305.000			-13.040			-3.260
243404.000			-13.039			-3.260
243504.000			-13.039			-3.260
243605.000			-13.040			-3.260
243704.000			-13.039			-3.260
243804.000			-13.039			-3.260
243904.000			-13.038			-3.260
244004.000			-13.039			-3.260
244104.000			-13.038			-3.259
244205.000			-13.038			-3.260
244304.000			-13.039			-3.260
244404.000			-13.039			-3.260
244505.000			-13.038			-3.260
244604.000			-13.038			-3.260
244704.000			-13.038			-3.260
244804.000			-13.038			-3.259
244904.000			-13.038			-3.259
245004.000			-13.038			-3.260
245105.000			-13.038			-3.260
245204.000			-13.038			-3.259
245304.000			-13.038			-3.259
245405.000			-13.038			-3.259
245504.000			-13.036			-3.259
245605.000			-13.036			-3.259
245703.000			-13.037			-3.259
245804.000			-13.037			-3.259
245905.000			-13.036			-3.259
246004.000			-13.037			-3.259
246104.000			-13.037			-3.259
246205.000			-13.037			-3.259
246304.000			-13.036			-3.259
246403.000			-13.036			-3.259
246505.000			-13.036			-3.259
246604.000			-13.035			-3.259
246704.000			-13.035			-3.259
246805.000			-13.036			-3.259
246904.000			-13.035			-3.259
247004.000			-13.036			-3.259
247105.000			-13.036			-3.259
247204.000			-13.034			-3.259
247303.000			-13.034			-3.259
247405.000			-13.035			-3.259
247504.000			-13.035			-3.259
247604.000			-13.036			-3.259
247705.000			-13.036			-3.259
247804.000			-13.035			-3.259
247904.000			-13.034			-3.259
248005.000			-13.035			-3.259
248104.000			-13.034			-3.258
248203.000			-13.033			-3.258
248305.000			-13.033			-3.258
248404.000			-13.033			-3.258
248504.000			-13.034			-3.258
248605.000			-13.033			-3.258
248704.000			-13.033			-3.258
248805.000			-13.034			-3.258
248904.000			-13.034			-3.258
249004.000			-13.033			-3.258
249104.000			-13.033			-3.258
249204.000			-13.032			-3.258
249304.000			-13.032			-3.258
249405.000			-13.032			-3.258
249504.000			-13.031			-3.258
249604.000			-13.031			-3.258
249705.000			-13.031			-3.258
249803.000			-13.031			-3.258
249904.000			-13.032			-3.258
250004.000			-13.032			-3.258
250104.000			-13.031			-3.258
250204.000			-13.032			-3.258
250305.000			-13.032			-3.258
250404.000			-13.032			-3.258
250504.000			-13.031			-3.258
250605.000			-13.031			-3.258
250703.000			-13.029			-3.257
250804.000			-13.030			-3.257
250905.000			-13.030			-3.257
251004.000			-13.030			-3.258
251104.000			-13.030			-3.258
251205.000			-13.030			-3.258
251304.000			-13.031			-3.258
251403.000			-13.029			-3.257
251505.000			-13.030			-3.257
251604.000			-13.030			-3.257
251704.000			-13.029			-3.257
251805.000			-13.029			-3.257
251904.000			-13.029			-3.257
252005.000			-13.029			-3.257
252104.000			-13.028			-3.257
252204.000			-13.028			-3.257
252304.000			-13.027			-3.257
252404.000			-13.028			-3.257
252504.000			-13.028			-3.257
252605.000			-13.028			-3.257
252704.000			-13.029			-3.257
252804.000			-13.028			-3.257
252905.000			-13.028			-3.257
253004.000			-13.027			-3.257
253104.000			-13.027			-3.257
253204.000			-13.028			-3.257
253304.000			-13.027			-3.257
253404.000			-13.028			-3.257
253505.000			-13.027			-3.257
253604.000			-13.027			-3.257
253704.000			-13.027			-3.257
253805.000			-13.027			-3.257
253904.000			-13.026			-3.257
254004.000			-13.026			-3.257
254104.000			-13.026			-3.257
254204.000			-13.026			-3.257
254304.000			-13.026			-3.256
254405.000			-13.025			-3.256
254504.000			-13.025			-3.256
254604.000			-13.025			-3.256
254705.000			-13.025			-3.256
254803.000			-13.024			-3.256
254904.000			-13.025			-3.256
255005.000			-13.025			-3.256
255104.000			-13.025			-3.256
255205.000			-13.025			-3.256
255304.000			-13.025			-3.256
255404.000			-13.025			-3.256
255505.000			-13.025			-3.256
255604.000			-13.025			-3.256
255703.000			-13.025			-3.256
255805.000			-13.023			-3.256
255904.000			-13.024			-3.256
256004.000			-13.025			-3.256
256105.000			-13.024			-3.256
256204.000			-13.024			-3.256
256304.000			-13.024			-3.256
256404.000			-13.024			-3.256
256504.000			-13.024			-3.256
256603.000			-13.024			-3.256
256705.000			-13.024			-3.256
256804.000			-13.023			-3.256
256904.000			-13.023			-3.256
257005.000			-13.023			-3.256
257104.000			-13.023			-3.256
257204.000			-13.024			-3.256
257304.000			-13.023			-3.256
257404.000			-13.022			-3.256
257504.000			-13.023			-3.256
257605.000			-13.023			-3.256
257704.000			-13.022			-3.255
257804.000			-13.022			-3.255
257905.000			-13.022			-3.256
258004.000			-13.022			-3.256
258104.000			-13.022			-3.256
258204.000			-13.022			-3.255
258304.000			-13.022			-3.255
258405.000			-13.022			-3.256
258504.000			-13.022			-3.255
258604.000			-13.021			-3.255
258705.000			-13.021			-3.255
258804.000			-13.021			-3.255
258903.000			-13.020			-3.255
259005.000			-13.020			-3.255
259104.000			-13.019			-3.255
259204.000			-13.020			-3.255
259305.000			-13.020			-3.255
259404.000			-13.020			-3.255
259504.000			-13.020			-3.255
259605.000			-13.021			-3.255
259704.000			-13.020			-3.255
259803.000			-13.019			-3.255
259905.000			-13.019			-3.255
260004.000			-13.019			-3.255
260104.000			-13.020			-3.255
260205.000			-13.020			-3.255
260304.000			-13.019			-3.255
260404.000			-13.019			-3.255
260505.000			-13.019			-3.255
260604.000			-13.019			-3.255
260703.000			-13.019			-3.255
260805.000			-13.019			-3.255
260904.000			-13.019			-3.255
261004.000			-13.019			-3.255
261105.000			-13.019			-3.255
261204.000			-13.019			-3.255
261304.000			-13.017			-3.254
261404.000			-13.017			-3.254
261504.000			-13.017			-3.254
261603.000			-13.017			-3.254
261704.000			-13.017			-3.254
261804.000			-13.017			-3.254
261905.000			-13.017			-3.254
262004.000			-13.018			-3.254
262104.000			-13.018			-3.254
262205.000			-13.017			-3.254
262303.000			-13.017			-3.254
262404.000			-13.017			-3.254
262505.000			-13.016			-3.254
262604.000			-13.016			-3.254
262704.000			-13.016			-3.254
262805.000			-13.015			-3.254
262904.000			-13.015			-3.254
263004.000			-13.017			-3.254
263105.000			-13.017			-3.254
263203.000			-13.016			-3.254
263304.000			-13.015			-3.254
263405.000			-13.015			-3.254
263504.000			-13.016			-3.254
263604.000			-13.015			-3.254
263705.000			-13.014			-3.254
263804.000			-13.015			-3.254
263903.000			-13.014			-3.254
264005.000			-13.014			-3.254
264104.000			-13.014			-3.254
264204.000			-13.015			-3.254
264305.000			-13.015			-3.254
264404.000			-13.014			-3.254
264504.000			-13.013			-3.253
264605.000			-13.013			-3.253
264704.000			-13.013			-3.253
264803.000			-13.014			-3.253
264904.000			-13.013			-3.253
265004.000			-13.013			-3.253
265105.000			-13.013			-3.253
265204.000			-13.013			-3.253
265304.000			-13.013			-3.253
265405.000			-13.014			-3.253
265504.000			-13.014			-3.253
265604.000			-13.013			-3.253
265704.000			-13.013			-3.253
265804.000			-13.013			-3.253
265904.000			-13.013			-3.253
266005.000			-13.013			-3.253
266104.000			-13.013			-3.253
266204.000			-13.012			-3.253
266305.000			-13.012			-3.253
266403.000			-13.012			-3.253
266504.000			-13.012			-3.253
266605.000			-13.012			-3.253
266704.000			-13.011			-3.253
266804.000			-13.011			-3.253
266905.000			-13.010			-3.253
267004.000			-13.011			-3.253
267103.000			-13.011			-3.253
267205.000			-13.011			-3.253
267303.000			-13.012			-3.253
267404.000			-13.012			-3.253
267505.000			-13.011			-3.253
267604.000			-13.010			-3.252
267704.000			-13.010			-3.252
267805.000			-13.010			-3.253
267904.000			-13.010			-3.252
268003.000			-13.010			-3.252
268104.000			-13.010			-3.252
268203.000			-13.009			-3.252
268305.000			-13.010			-3.252
268404.000			-13.010			-3.252
268504.000			-13.009			-3.252
268605.000			-13.009			-3.252
268704.000			-13.009			-3.252
268804.000			-13.008			-3.252
268904.000			-13.009			-3.252
269004.000			-13.007			-3.252
269104.000			-13.007			-3.252
269205.000			-13.009			-3.252
269304.000			-13.009			-3.252
269404.000			-13.008			-3.252
269505.000			-13.007			-3.252
269604.000			-13.008			-3.252
269704.000			-13.008			-3.252
269804.000			-13.007			-3.252
269904.000			-13.008			-3.252
270004.000			-13.006			-3.251
270105.000			-13.007			-3.252
270204.000			-13.007			-3.252
270304.000			-13.006			-3.251
270405.000			-13.006			-3.252
270504.000			-13.006			-3.252
270604.000			-13.006			-3.252
270704.000			-13.007			-3.252
270804.000			-13.006			-3.252
270904.000			-13.007			-3.252
271005.000			-13.006			-3.252
271104.000			-13.006			-3.251
271205.000			-13.006			-3.251
271304.000			-13.006			-3.252
271403.000			-13.006			-3.252
271505.000			-13.006			-3.251
271604.000			-13.005			-3.251
271704.000			-13.005			-3.251
271805.000			-13.004			-3.251
271904.000			-13.004			-3.251
272004.000			-13.005			-3.251
272105.000			-13.006			-3.251
272204.000			-13.005			-3.251
272303.000			-13.005			-3.251
272405.000			-13.005			-3.251
272504.000			-13.004			-3.251
272604.000			-13.004			-3.251
272705.000			-13.003			-3.251
272804.000			-13.003			-3.251
272904.000			-13.003			-3.251
273004.000			-13.003			-3.251
273104.000			-13.003			-3.251
273204.000			-13.002			-3.251
273305.000			-13.003			-3.251
273404.000			-13.003			-3.251
273504.000			-13.002			-3.251
273605.000			-13.002			-3.251
273703.000			-13.003			-3.251
273804.000			-13.003			-3.251
273904.000			-13.003			-3.251
274004.000			-13.003			-3.251
274104.000			-13.002			-3.251
274205.000			-13.002			-3.251
274304.000			-13.002			-3.251
274405.000			-13.001			-3.250
274504.000			-13.002			-3.250
274603.000			-13.002			-3.250
274705.000			-13.002			-3.251
274804.000			-13.002			-3.251
274904.000			-13.001			-3.250
275005.000			-13.000			-3.250
275104.000			-13.000			-3.250
275204.000			-13.001			-3.250
275304.000			-13.001			-3.250
275404.000			-13.000			-3.250
275503.000			-13.001			-3.250
275605.000			-13.001			-3.250
275704.000			-13.001			-3.250
275804.000			-13.000			-3.250
275905.000			-13.001			-3.250
276004.000			-13.000			-3.250
276104.000			-13.000			-3.250
276204.000			-13.000			-3.250
276304.000			-13.000			-3.250
276403.000			-12.999			-3.250
276505.000			-12.999			-3.250
276604.000			-12.999			-3.250
276704.000			-12.999			-3.250
276805.000			-12.998			-3.250
276904.000			-12.999			-3.250
277004.000			-13.000			-3.250
277105.000			-13.000			-3.250
277204.000			-13.000			-3.250
277303.000			-12.999			-3.250
277405.000			-12.998			-3.249
277504.000			-12.998			-3.250
277605.000			-12.998			-3.249
277704.000			-12.998			-3.250
277804.000			-12.999			-3.250
277905.000			-12.998			-3.250
278004.000			-12.998			-3.249
278104.000			-12.997			-3.249
278205.000			-12.997			-3.249
278304.000			-12.998			-3.249
278403.000			-12.998			-3.250
278505.000			-12.998			-3.249
278604.000			-12.997			-3.249
278704.000			-12.997			-3.249
278805.000			-12.997			-3.249
278904.000			-12.997			-3.249
279004.000			-12.997			-3.249
279105.000			-12.997			-3.249
279204.000			-12.996			-3.249
279304.000			-12.996			-3.249
279405.000			-12.996			-3.249
279503.000			-12.997			-3.249
279604.000			-12.997			-3.249
279705.000			-12.995			-3.249
279804.000			-12.995			-3.249
279904.000			-12.995			-3.249
280005.000			-12.995			-3.249
280104.000			-12.994			-3.249
280204.000			-12.995			-3.249
280305.000			-12.995			-3.249
280403.000			-12.996			-3.249
280504.000			-12.995			-3.249
280604.000			-12.995			-3.249
280704.000			-12.995			-3.249
280805.000			-12.996			-3.249
280904.000			-12.995			-3.249
281004.000			-12.994			-3.248
281105.000			-12.993			-3.248
281204.000			-12.994			-3.248
281304.000			-12.994			-3.248
281405.000			-12.993			-3.248
281503.000			-12.992			-3.248
281604.000			-12.993			-3.248
281705.000			-12.993			-3.248
281804.000			-12.992			-3.248
281904.000			-12.993			-3.248
282005.000			-12.993			-3.248
282104.000			-12.993			-3.248
282204.000			-12.992			-3.248
282305.000			-12.992			-3.248
282403.000			-12.992			-3.248
282504.000			-12.992			-3.248
282605.000			-12.992			-3.248
282704.000			-12.991			-3.248
282804.000			-12.991			-3.248
282905.000			-12.991			-3.248
283004.000			-12.991			-3.248
283104.000			-12.991			-3.248
283205.000			-12.991			-3.248
283303.000			-12.990			-3.248
283404.000			-12.991			-3.248
283505.000			-12.991			-3.248
283604.000			-12.991			-3.248
283704.000			-12.991			-3.248
283805.000			-12.989			-3.247
283904.000			-12.990			-3.247
284005.000			-12.990			-3.248
284104.000			-12.991			-3.248
284203.000			-12.990			-3.247
284305.000			-12.991			-3.248
284403.000			-12.990			-3.248
284504.000			-12.990			-3.248
284605.000			-12.991			-3.248
284704.000			-12.991			-3.248
284804.000			-12.990			-3.247
284905.000			-12.989			-3.247
285004.000			-12.989			-3.247
285104.000			-12.989			-3.247
285205.000			-12.989			-3.247
285303.000			-12.989			-3.247
285404.000			-12.989			-3.247
285505.000			-12.990			-3.247
285604.000			-12.990			-3.247
285704.000			-12.990			-3.247
285805.000			-12.990			-3.247
285904.000			-12.989			-3.247
286004.000			-12.988			-3.247
286105.000			-12.988			-3.247
286204.000			-12.988			-3.247
286304.000			-12.988			-3.247
286404.000			-12.988			-3.247
286504.000			-12.987			-3.247
286604.000			-12.987			-3.247
286705.000			-12.987			-3.247
286804.000			-12.988			-3.247
286904.000			-12.987			-3.247
287005.000			-12.987			-3.247
287104.000			-12.987			-3.247
287205.000			-12.987			-3.247
287304.000			-12.987			-3.247
287404.000			-12.987			-3.247
287504.000			-12.986			-3.247
287604.000			17.131			4.283
287780.000			-12.987			-3.247
287867.000			-12.987			-3.247
287955.000			-12.986			-3.246
288043.000			-12.985			-3.246
288131.000			-12.985			-3.246
288219.000			-12.986			-3.246
288306.000			-12.986			-3.246
288405.000			-12.986			-3.247
288503.000			-12.986			-3.247
288604.000			-12.986			-3.246
288705.000			-12.985			-3.246
288804.000			-12.985			-3.246
288904.000			-12.985			-3.246
289005.000			-12.985			-3.246
289104.000			-12.985			-3.246
289204.000			-12.984			-3.246
289305.000			-12.984			-3.246
289404.000			-12.984			-3.246
289504.000			-12.984			-3.246
289604.000			-12.985			-3.246
289704.000			-12.985			-3.246
289804.000			-12.984			-3.246
289905.000			-12.984			-3.246
290004.000			-12.984			-3.246
290104.000			-12.983			-3.246
290205.000			-12.984			-3.246
290304.000			-12.984			-3.246
290405.000			-12.984			-3.246
290503.000			-12.984			-3.246
290604.000			-12.983			-3.246
290705.000			-12.983			-3.246
290804.000			-12.984			-3.246
290904.000			-12.983			-3.246
291005.000			-12.983			-3.246
291104.000			-12.984			-3.246
291204.000			-12.983			-3.246
291305.000			-12.983			-3.246
291403.000			-12.983			-3.246
291504.000			-12.983			-3.246
291604.000			-12.983			-3.246
291704.000			-12.984			-3.246
291804.000			-12.983			-3.246
291905.000			-12.983			-3.246
292004.000			-12.982			-3.246
292104.000			-12.984			-3.246
292205.000			-12.983			-3.246
292303.000			-12.982			-3.245
292404.000			-12.981			-3.245
292504.000			-12.982			-3.246
292604.000			-12.982			-3.245
292704.000			-12.981			-3.245
292805.000			-12.981			-3.245
292904.000			-12.982			-3.246
293004.000			-12.982			-3.245
293105.000			-12.981			-3.245
293204.000			-12.981			-3.245
293304.000			-12.980			-3.245
293404.000			-12.981			-3.245
293504.000			-12.981			-3.245
293605.000			-12.981			-3.245
293704.000			-12.982			-3.245
293804.000			-12.981			-3.245
293905.000			-12.981			-3.245
294004.000			-12.981			-3.245
294104.000			-12.980			-3.245
294205.000			-12.979			-3.245
294303.000			-12.979			-3.245
294404.000			-12.979			-3.245
294505.000			-12.980			-3.245
294604.000			-12.980			-3.245
294704.000			-12.979			-3.245
294805.000			-12.979			-3.245
294904.000			-12.979			-3.245
295004.000			-12.978			-3.245
295105.000			-12.979			-3.245
295203.000			-12.979			-3.245
295304.000			-12.978			-3.245
295404.000			-12.978			-3.245
295504.000			-12.978			-3.245
295604.000			-12.979			-3.245
295705.000			-12.979			-3.245
295804.000			-12.978			-3.245
295904.000			-12.978			-3.244
296005.000			-12.978			-3.245
296104.000			-12.978			-3.244
296204.000			-12.978			-3.244
296304.000			-12.979			-3.245
296404.000			-12.978			-3.245
296504.000			-12.977			-3.244
296605.000			-12.977			-3.244
296704.000			-12.978			-3.244
296805.000			-12.978			-3.244
296904.000			-12.978			-3.244
297004.000			-12.978			-3.244
297105.000			-12.977			-3.244
297204.000			-12.977			-3.244
297304.000			-12.977			-3.244
297404.000			-12.976			-3.244
297504.000			-12.977			-3.244
297604.000			-12.977			-3.244
297705.000			-12.977			-3.244
297804.000			-12.975			-3.244
297904.000			-12.975			-3.244
298005.000			-12.975			-3.244
298104.000			-12.975			-3.244
298204.000			-12.976			-3.244
298304.000			-12.977			-3.244
298404.000			-12.977			-3.244
298503.000			-12.976			-3.244
298605.000			-12.976			-3.244
298704.000			-12.977			-3.244
298804.000			-12.977			-3.244
298905.000			-12.976			-3.244
299004.000			-12.975			-3.244
299104.000			-12.976			-3.244
299205.000			-12.973			-3.243
299304.000			-12.975			-3.244
299403.000			-12.974			-3.244
299505.000			-12.974			-3.244
299604.000			-12.975			-3.244
299704.000			-12.974			-3.244
299805.000			-12.974			-3.243
299904.000			-12.974			-3.243
