# Acquired on 21/12/2023 15:38:04 
# SPIDER: Creep_-9mm_07714532C-2
# CREEP MEASUREMENT

# time [ms]		force [N]		stiffness [N/mm]
1.000			28.712			-3.190
100.000			30.617			-3.402
201.000			31.644			-3.516
300.000			31.437			-3.493
400.000			31.282			-3.476
501.000			31.167			-3.463
601.000			31.073			-3.453
701.000			30.991			-3.443
801.000			30.919			-3.435
900.000			30.799			-3.422
1000.000			30.746			-3.416
1100.000			30.698			-3.411
1200.000			30.652			-3.406
1301.000			30.610			-3.401
1401.000			30.571			-3.397
1501.000			30.534			-3.393
1601.000			30.499			-3.389
1700.000			30.434			-3.382
1800.000			30.403			-3.378
1901.000			30.375			-3.375
2000.000			30.348			-3.372
2101.000			30.322			-3.369
2202.000			30.297			-3.366
2300.000			30.272			-3.364
2400.000			30.226			-3.358
2501.000			30.205			-3.356
2600.000			30.185			-3.354
2700.000			30.164			-3.352
2802.000			30.144			-3.349
2901.000			30.124			-3.347
3000.000			30.106			-3.345
3101.000			30.071			-3.341
3200.000			30.053			-3.339
3300.000			30.037			-3.337
3401.000			30.020			-3.336
3500.000			30.006			-3.334
3601.000			29.990			-3.332
3702.000			29.975			-3.331
3800.000			29.959			-3.329
3900.000			29.931			-3.326
4001.000			29.917			-3.324
4100.000			29.904			-3.323
4200.000			29.891			-3.321
4302.000			29.878			-3.320
4401.000			29.866			-3.318
4501.000			29.853			-3.317
4600.000			29.829			-3.314
4700.000			29.817			-3.313
4801.000			29.806			-3.312
4900.000			29.794			-3.310
5000.000			29.784			-3.309
5102.000			29.773			-3.308
5201.000			29.760			-3.307
5300.000			29.740			-3.304
5401.000			29.729			-3.303
5500.000			29.718			-3.302
5600.000			29.709			-3.301
5701.000			29.699			-3.300
5800.000			29.690			-3.299
5901.000			29.680			-3.298
6002.000			29.662			-3.296
6100.000			29.653			-3.295
6200.000			29.643			-3.294
6301.000			29.634			-3.293
6400.000			29.626			-3.292
6500.000			29.618			-3.291
6601.000			29.609			-3.290
6701.000			29.601			-3.289
6801.000			29.585			-3.287
6901.000			29.576			-3.286
7000.000			29.568			-3.285
7100.000			29.560			-3.284
7201.000			29.552			-3.284
7300.000			29.545			-3.283
7400.000			29.537			-3.282
7502.000			29.522			-3.280
7601.000			29.514			-3.279
7701.000			29.508			-3.279
7800.000			29.501			-3.278
7900.000			29.494			-3.277
8001.000			29.488			-3.276
8100.000			29.480			-3.276
8200.000			29.473			-3.275
8302.000			29.459			-3.273
8401.000			29.452			-3.272
8500.000			29.446			-3.272
8601.000			29.439			-3.271
8700.000			29.433			-3.270
8800.000			29.427			-3.270
8901.000			29.420			-3.269
9000.000			29.408			-3.268
9101.000			29.401			-3.267
9202.000			29.396			-3.266
9300.000			29.390			-3.266
9400.000			29.384			-3.265
9501.000			29.377			-3.264
9600.000			29.372			-3.264
9700.000			29.360			-3.262
9801.000			29.355			-3.262
9901.000			29.350			-3.261
10001.000			29.343			-3.260
10101.000			29.337			-3.260
10200.000			29.332			-3.259
10300.000			29.328			-3.259
10401.000			29.316			-3.257
10500.000			29.311			-3.257
10602.000			29.305			-3.256
10701.000			29.300			-3.256
10801.000			29.295			-3.255
10901.000			29.289			-3.254
11000.000			29.285			-3.254
11100.000			29.280			-3.253
11201.000			29.271			-3.252
11300.000			29.265			-3.252
11400.000			29.260			-3.251
11502.000			29.256			-3.251
11601.000			29.250			-3.250
11700.000			29.246			-3.250
11801.000			29.242			-3.249
11900.000			29.232			-3.248
12000.000			29.227			-3.247
12101.000			29.222			-3.247
12201.000			29.218			-3.246
12301.000			29.213			-3.246
12401.000			29.210			-3.246
12500.000			29.205			-3.245
12600.000			29.195			-3.244
12701.000			29.191			-3.243
12800.000			29.186			-3.243
12900.000			29.182			-3.242
13002.000			29.177			-3.242
13101.000			29.174			-3.242
13200.000			29.169			-3.241
13301.000			29.165			-3.241
13400.000			29.157			-3.240
13500.000			29.152			-3.239
13601.000			29.149			-3.239
13700.000			29.144			-3.238
13802.000			29.140			-3.238
13901.000			29.137			-3.237
14001.000			29.133			-3.237
14101.000			29.124			-3.236
14200.000			29.120			-3.236
14300.000			29.115			-3.235
14401.000			29.113			-3.235
14500.000			29.108			-3.234
14601.000			29.104			-3.234
14702.000			29.100			-3.233
14801.000			29.093			-3.233
14900.000			29.088			-3.232
15001.000			29.085			-3.232
15100.000			29.081			-3.231
15200.000			29.078			-3.231
15301.000			29.075			-3.231
15401.000			29.071			-3.230
15501.000			29.067			-3.230
15601.000			29.060			-3.229
15700.000			29.056			-3.228
15800.000			29.053			-3.228
15901.000			29.049			-3.228
16000.000			29.045			-3.227
16100.000			29.042			-3.227
16202.000			29.039			-3.227
16301.000			29.032			-3.226
16401.000			29.029			-3.225
16501.000			29.025			-3.225
16600.000			29.022			-3.225
16700.000			29.018			-3.224
16801.000			29.015			-3.224
16900.000			29.012			-3.224
17000.000			29.005			-3.223
17102.000			29.001			-3.222
17201.000			28.998			-3.222
17301.000			28.995			-3.222
17400.000			28.992			-3.221
17500.000			28.988			-3.221
17601.000			28.984			-3.220
17700.000			28.981			-3.220
17800.000			28.974			-3.219
17902.000			28.971			-3.219
18001.000			28.969			-3.219
18100.000			28.966			-3.218
18201.000			28.963			-3.218
18300.000			28.960			-3.218
18400.000			28.956			-3.217
18501.000			28.951			-3.217
18600.000			28.948			-3.216
18701.000			28.944			-3.216
18802.000			28.941			-3.216
18901.000			28.938			-3.215
19000.000			28.936			-3.215
19101.000			28.933			-3.215
19200.000			28.927			-3.214
19300.000			28.924			-3.214
19401.000			28.921			-3.213
19500.000			28.919			-3.213
19601.000			28.915			-3.213
19702.000			28.912			-3.212
19800.000			28.911			-3.212
19900.000			28.907			-3.212
20001.000			28.900			-3.211
20100.000			28.898			-3.211
20200.000			28.896			-3.211
20300.000			28.893			-3.210
20401.000			28.889			-3.210
20502.000			28.885			-3.209
20600.000			28.884			-3.209
20700.000			28.878			-3.209
20801.000			28.876			-3.208
20900.000			28.872			-3.208
21000.000			28.870			-3.208
21101.000			28.867			-3.207
21201.000			28.864			-3.207
21301.000			28.862			-3.207
21401.000			28.858			-3.206
21500.000			28.854			-3.206
21600.000			28.852			-3.206
21701.000			28.850			-3.206
21800.000			28.847			-3.205
21900.000			28.844			-3.205
22002.000			28.841			-3.205
22101.000			28.839			-3.204
22200.000			28.834			-3.204
22301.000			28.832			-3.204
22400.000			28.830			-3.203
22500.000			28.827			-3.203
22601.000			28.824			-3.203
22700.000			28.821			-3.202
22801.000			28.819			-3.202
22902.000			28.815			-3.202
23000.000			28.812			-3.201
23100.000			28.810			-3.201
23201.000			28.808			-3.201
23300.000			28.805			-3.201
23400.000			28.801			-3.200
23500.000			28.799			-3.200
23601.000			28.793			-3.199
23702.000			28.792			-3.199
23800.000			28.790			-3.199
23900.000			28.788			-3.199
24001.000			28.787			-3.199
24100.000			28.783			-3.198
24200.000			28.780			-3.198
24301.000			28.778			-3.198
24401.000			28.773			-3.197
24501.000			28.771			-3.197
24601.000			28.769			-3.197
24700.000			28.766			-3.196
24800.000			28.764			-3.196
24901.000			28.762			-3.196
25000.000			28.759			-3.195
25100.000			28.756			-3.195
25202.000			28.754			-3.195
25301.000			28.750			-3.194
25401.000			28.749			-3.194
25501.000			28.747			-3.194
25600.000			28.744			-3.194
25700.000			28.741			-3.193
25801.000			28.737			-3.193
25900.000			28.735			-3.193
26000.000			28.733			-3.193
26102.000			28.731			-3.192
26201.000			28.728			-3.192
26300.000			28.726			-3.192
26401.000			28.724			-3.192
26500.000			28.722			-3.191
26600.000			28.718			-3.191
26700.000			28.716			-3.191
26800.000			28.713			-3.190
26902.000			28.710			-3.190
27001.000			28.710			-3.190
27100.000			28.707			-3.190
27201.000			28.705			-3.189
27300.000			28.702			-3.189
27400.000			28.699			-3.189
27501.000			28.698			-3.189
27600.000			28.695			-3.188
27701.000			28.693			-3.188
27802.000			28.691			-3.188
27901.000			28.689			-3.188
28000.000			28.685			-3.187
28101.000			28.683			-3.187
28200.000			28.681			-3.187
28300.000			28.679			-3.187
28401.000			28.677			-3.186
28500.000			28.676			-3.186
28601.000			28.674			-3.186
28702.000			28.671			-3.186
28800.000			28.667			-3.185
28900.000			28.666			-3.185
29001.000			28.664			-3.185
29100.000			28.661			-3.185
29200.000			28.659			-3.184
29301.000			28.657			-3.184
29401.000			28.656			-3.184
29501.000			28.651			-3.183
29601.000			28.649			-3.183
29700.000			28.648			-3.183
29800.000			28.646			-3.183
29900.000			28.644			-3.183
30000.000			28.641			-3.182
30101.000			28.639			-3.182
30201.000			28.636			-3.182
30301.000			28.634			-3.182
30402.000			28.631			-3.181
30500.000			28.630			-3.181
30600.000			28.629			-3.181
30701.000			28.628			-3.181
30800.000			28.625			-3.181
30900.000			28.624			-3.180
31002.000			28.619			-3.180
31101.000			28.617			-3.180
31201.000			28.616			-3.180
31301.000			28.614			-3.179
31400.000			28.612			-3.179
31500.000			28.610			-3.179
31601.000			28.607			-3.179
31700.000			28.603			-3.178
31800.000			28.602			-3.178
31902.000			28.600			-3.178
32001.000			28.599			-3.178
32100.000			28.598			-3.178
32201.000			28.596			-3.177
32300.000			28.594			-3.177
32400.000			28.591			-3.177
32501.000			28.588			-3.176
32601.000			28.586			-3.176
32701.000			28.585			-3.176
32802.000			28.584			-3.176
32900.000			28.583			-3.176
33000.000			28.580			-3.176
33100.000			28.578			-3.175
33200.000			28.574			-3.175
33301.000			28.573			-3.175
33400.000			28.572			-3.175
33501.000			28.570			-3.174
33602.000			28.568			-3.174
33700.000			28.567			-3.174
33800.000			28.565			-3.174
33901.000			28.562			-3.174
34000.000			28.559			-3.173
34100.000			28.558			-3.173
34201.000			28.557			-3.173
34301.000			28.556			-3.173
34401.000			28.553			-3.173
34501.000			28.550			-3.172
34600.000			28.547			-3.172
34700.000			28.546			-3.172
34801.000			28.545			-3.172
34900.000			28.543			-3.171
35000.000			28.541			-3.171
35102.000			28.540			-3.171
35201.000			28.538			-3.171
35300.000			28.537			-3.171
35401.000			28.534			-3.170
35500.000			28.531			-3.170
35600.000			28.531			-3.170
35701.000			28.528			-3.170
35800.000			28.527			-3.170
35901.000			28.526			-3.170
36002.000			28.525			-3.169
36100.000			28.521			-3.169
36200.000			28.519			-3.169
36300.000			28.518			-3.169
36400.000			28.516			-3.168
36501.000			28.514			-3.168
36600.000			28.513			-3.168
36701.000			28.512			-3.168
36802.000			28.509			-3.168
36900.000			28.507			-3.167
37000.000			28.506			-3.167
37101.000			28.505			-3.167
37200.000			28.503			-3.167
37300.000			28.500			-3.167
37401.000			28.499			-3.167
37501.000			28.497			-3.166
37601.000			28.494			-3.166
37702.000			28.493			-3.166
37800.000			28.493			-3.166
37900.000			28.491			-3.166
38001.000			28.489			-3.165
38100.000			28.487			-3.165
38200.000			28.487			-3.165
38301.000			28.483			-3.165
38401.000			28.482			-3.165
38501.000			28.480			-3.164
38601.000			28.478			-3.164
38700.000			28.476			-3.164
38800.000			28.475			-3.164
38901.000			28.474			-3.164
39000.000			28.472			-3.164
39100.000			28.470			-3.163
39202.000			28.467			-3.163
39301.000			28.466			-3.163
39402.000			28.465			-3.163
39500.000			28.464			-3.163
39600.000			28.462			-3.162
39701.000			28.461			-3.162
39800.000			28.458			-3.162
39900.000			28.457			-3.162
40001.000			28.456			-3.162
40101.000			28.454			-3.162
40201.000			28.452			-3.161
40301.000			28.451			-3.161
40400.000			28.451			-3.161
40500.000			28.447			-3.161
40601.000			28.444			-3.160
40700.000			28.444			-3.160
40800.000			28.442			-3.160
40902.000			28.440			-3.160
41001.000			28.439			-3.160
41100.000			28.438			-3.160
41201.000			28.435			-3.159
41300.000			28.434			-3.159
41400.000			28.433			-3.159
41501.000			28.431			-3.159
41601.000			28.431			-3.159
41701.000			28.429			-3.159
41802.000			28.428			-3.159
41900.000			28.426			-3.158
42000.000			28.424			-3.158
42101.000			28.422			-3.158
42200.000			28.420			-3.158
42300.000			28.419			-3.158
42402.000			28.418			-3.158
42501.000			28.418			-3.158
42600.000			28.416			-3.157
42700.000			28.413			-3.157
42800.000			28.411			-3.157
42901.000			28.409			-3.157
43000.000			28.408			-3.156
43100.000			28.406			-3.156
43201.000			28.406			-3.156
43301.000			28.404			-3.156
43401.000			28.403			-3.156
43501.000			28.401			-3.156
43600.000			28.400			-3.156
43700.000			28.398			-3.155
43801.000			28.396			-3.155
43900.000			28.395			-3.155
44000.000			28.394			-3.155
44102.000			28.392			-3.155
44201.000			28.390			-3.154
44300.000			28.388			-3.154
44401.000			28.387			-3.154
44500.000			28.387			-3.154
44600.000			28.385			-3.154
44701.000			28.384			-3.154
44800.000			28.382			-3.154
44901.000			28.379			-3.153
45002.000			28.378			-3.153
45100.000			28.378			-3.153
45200.000			28.376			-3.153
45301.000			28.375			-3.153
45400.000			28.373			-3.153
45500.000			28.374			-3.153
45601.000			28.370			-3.152
45701.000			28.370			-3.152
45802.000			28.368			-3.152
45901.000			28.366			-3.152
46000.000			28.365			-3.152
46101.000			28.364			-3.152
46200.000			28.363			-3.151
46300.000			28.361			-3.151
46401.000			28.359			-3.151
46500.000			28.357			-3.151
46601.000			28.356			-3.151
46702.000			28.355			-3.151
46800.000			28.354			-3.150
46900.000			28.353			-3.150
47001.000			28.352			-3.150
47100.000			28.349			-3.150
47200.000			28.348			-3.150
47301.000			28.347			-3.150
47401.000			28.345			-3.149
47501.000			28.343			-3.149
47601.000			28.343			-3.149
47700.000			28.340			-3.149
47800.000			28.339			-3.149
47901.000			28.338			-3.149
48000.000			28.337			-3.149
48100.000			28.336			-3.148
48202.000			28.335			-3.148
48301.000			28.334			-3.148
48400.000			28.333			-3.148
48501.000			28.331			-3.148
48600.000			28.329			-3.148
48700.000			28.328			-3.148
48801.000			28.326			-3.147
48900.000			28.325			-3.147
49002.000			28.324			-3.147
49101.000			28.323			-3.147
49200.000			28.323			-3.147
49301.000			28.320			-3.147
49400.000			28.319			-3.147
49500.000			28.317			-3.146
49601.000			28.316			-3.146
49700.000			28.315			-3.146
49801.000			28.314			-3.146
49902.000			28.312			-3.146
50001.000			28.310			-3.146
50100.000			28.309			-3.145
50201.000			28.307			-3.145
50300.000			28.306			-3.145
50400.000			28.305			-3.145
50501.000			28.304			-3.145
50601.000			28.303			-3.145
50701.000			28.302			-3.145
50801.000			28.300			-3.144
50900.000			28.299			-3.144
51000.000			28.298			-3.144
51101.000			28.296			-3.144
51200.000			28.295			-3.144
51300.000			28.294			-3.144
51402.000			28.292			-3.144
51501.000			28.290			-3.143
51600.000			28.288			-3.143
51701.000			28.287			-3.143
51800.000			28.286			-3.143
51900.000			28.287			-3.143
52001.000			28.286			-3.143
52100.000			28.284			-3.143
52202.000			28.281			-3.142
52301.000			28.280			-3.142
52401.000			28.278			-3.142
52501.000			28.278			-3.142
52600.000			28.277			-3.142
52700.000			28.276			-3.142
52801.000			28.275			-3.142
52900.000			28.273			-3.141
53001.000			28.272			-3.141
53102.000			28.270			-3.141
53201.000			28.269			-3.141
53300.000			28.268			-3.141
53401.000			28.267			-3.141
53500.000			28.266			-3.141
53600.000			28.265			-3.141
53701.000			28.264			-3.140
53801.000			28.263			-3.140
53901.000			28.262			-3.140
54002.000			28.260			-3.140
54100.000			28.259			-3.140
54200.000			28.259			-3.140
54301.000			28.258			-3.140
54400.000			28.255			-3.139
54500.000			28.254			-3.139
54601.000			28.253			-3.139
54701.000			28.251			-3.139
54801.000			28.250			-3.139
54901.000			28.250			-3.139
55000.000			28.248			-3.139
55100.000			28.247			-3.139
55201.000			28.245			-3.138
55300.000			28.244			-3.138
55400.000			28.244			-3.138
55502.000			28.243			-3.138
55601.000			28.243			-3.138
55701.000			28.241			-3.138
55800.000			28.240			-3.138
55900.000			28.237			-3.137
56001.000			28.237			-3.137
56100.000			28.235			-3.137
56200.000			28.235			-3.137
56302.000			28.234			-3.137
56401.000			28.233			-3.137
56500.000			28.231			-3.137
56601.000			28.229			-3.137
56700.000			28.227			-3.136
56800.000			28.227			-3.136
56901.000			28.226			-3.136
57000.000			28.225			-3.136
57101.000			28.224			-3.136
57202.000			28.224			-3.136
57300.000			28.223			-3.136
57400.000			28.220			-3.136
57501.000			28.219			-3.135
57600.000			28.218			-3.135
57700.000			28.218			-3.135
57801.000			28.217			-3.135
57901.000			28.215			-3.135
58001.000			28.215			-3.135
58101.000			28.213			-3.135
58200.000			28.212			-3.135
58300.000			28.210			-3.134
58401.000			28.209			-3.134
58500.000			28.209			-3.134
58600.000			28.208			-3.134
58702.000			28.206			-3.134
58801.000			28.205			-3.134
58901.000			28.204			-3.134
59000.000			28.203			-3.134
59100.000			28.202			-3.134
59201.000			28.200			-3.133
59300.000			28.199			-3.133
59400.000			28.198			-3.133
59502.000			28.197			-3.133
59601.000			28.196			-3.133
59701.000			28.195			-3.133
59801.000			28.194			-3.133
59900.000			28.193			-3.133
60000.000			28.192			-3.132
60101.000			28.191			-3.132
60200.000			28.190			-3.132
60300.000			28.188			-3.132
60402.000			28.187			-3.132
60501.000			28.187			-3.132
60600.000			28.186			-3.132
60701.000			28.186			-3.132
60800.000			28.185			-3.132
60900.000			28.184			-3.132
61001.000			28.180			-3.131
61100.000			28.180			-3.131
61201.000			28.179			-3.131
61302.000			28.179			-3.131
61400.000			28.178			-3.131
61500.000			28.177			-3.131
61601.000			28.176			-3.131
61700.000			28.175			-3.131
61800.000			28.173			-3.130
61900.000			28.173			-3.130
62001.000			28.172			-3.130
62102.000			28.169			-3.130
62200.000			28.169			-3.130
62300.000			28.168			-3.130
62401.000			28.167			-3.130
62500.000			28.165			-3.129
62600.000			28.164			-3.129
62701.000			28.164			-3.129
62801.000			28.164			-3.129
62901.000			28.163			-3.129
63001.000			28.161			-3.129
63100.000			28.160			-3.129
63200.000			28.158			-3.129
63301.000			28.156			-3.128
63400.000			28.155			-3.128
63500.000			28.156			-3.128
63602.000			28.155			-3.128
63701.000			28.154			-3.128
63800.000			28.153			-3.128
63901.000			28.152			-3.128
64000.000			28.149			-3.128
64100.000			28.149			-3.128
64201.000			28.149			-3.128
64300.000			28.147			-3.127
64401.000			28.146			-3.127
64502.000			28.146			-3.127
64600.000			28.145			-3.127
64700.000			28.143			-3.127
64801.000			28.142			-3.127
64900.000			28.141			-3.127
65000.000			28.141			-3.127
65100.000			28.140			-3.127
65201.000			28.139			-3.127
65302.000			28.137			-3.126
65400.000			28.135			-3.126
65500.000			28.135			-3.126
65601.000			28.134			-3.126
65700.000			28.133			-3.126
65800.000			28.132			-3.126
65901.000			28.132			-3.126
66001.000			28.131			-3.126
66101.000			28.130			-3.126
66201.000			28.128			-3.125
66300.000			28.127			-3.125
66400.000			28.126			-3.125
66501.000			28.125			-3.125
66600.000			28.124			-3.125
66700.000			28.124			-3.125
66802.000			28.123			-3.125
66901.000			28.121			-3.125
67001.000			28.120			-3.124
67101.000			28.119			-3.124
67200.000			28.119			-3.124
67300.000			28.117			-3.124
67401.000			28.117			-3.124
67500.000			28.117			-3.124
67600.000			28.115			-3.124
67702.000			28.113			-3.124
67801.000			28.113			-3.124
67900.000			28.113			-3.124
68001.000			28.111			-3.123
68100.000			28.110			-3.123
68200.000			28.109			-3.123
68300.000			28.108			-3.123
68400.000			28.107			-3.123
68502.000			28.106			-3.123
68601.000			28.105			-3.123
68700.000			28.104			-3.123
68801.000			28.103			-3.123
68900.000			28.102			-3.122
69000.000			28.101			-3.122
69101.000			28.100			-3.122
69200.000			28.099			-3.122
69301.000			28.098			-3.122
69402.000			28.097			-3.122
69501.000			28.096			-3.122
69600.000			28.095			-3.122
69701.000			28.095			-3.122
69800.000			28.093			-3.121
69900.000			28.093			-3.121
70001.000			28.092			-3.121
70100.000			28.090			-3.121
70201.000			28.090			-3.121
70302.000			28.089			-3.121
70400.000			28.088			-3.121
70500.000			28.086			-3.121
70601.000			28.085			-3.121
70700.000			28.085			-3.121
70800.000			28.085			-3.121
70901.000			28.084			-3.120
71001.000			28.083			-3.120
71101.000			28.082			-3.120
71201.000			28.081			-3.120
71300.000			28.080			-3.120
71400.000			28.079			-3.120
71500.000			28.077			-3.120
71600.000			28.076			-3.120
71701.000			28.076			-3.120
71801.000			28.074			-3.119
71901.000			28.074			-3.119
72001.000			28.073			-3.119
72100.000			28.072			-3.119
72200.000			28.072			-3.119
72301.000			28.071			-3.119
72400.000			28.071			-3.119
72500.000			28.069			-3.119
72602.000			28.067			-3.119
72701.000			28.067			-3.119
72800.000			28.067			-3.119
72901.000			28.066			-3.118
73000.000			28.064			-3.118
73100.000			28.063			-3.118
73201.000			28.062			-3.118
73300.000			28.063			-3.118
73401.000			28.061			-3.118
73502.000			28.059			-3.118
73601.000			28.059			-3.118
73700.000			28.058			-3.118
73801.000			28.058			-3.118
73900.000			28.058			-3.118
74000.000			28.057			-3.117
74101.000			28.055			-3.117
74200.000			28.053			-3.117
74301.000			28.052			-3.117
74402.000			28.052			-3.117
74500.000			28.052			-3.117
74600.000			28.051			-3.117
74700.000			28.050			-3.117
74800.000			28.049			-3.117
74901.000			28.047			-3.116
75000.000			28.047			-3.116
75101.000			28.046			-3.116
75202.000			28.045			-3.116
75300.000			28.044			-3.116
75400.000			28.044			-3.116
75501.000			28.044			-3.116
75600.000			28.042			-3.116
75700.000			28.041			-3.116
75801.000			28.040			-3.116
75901.000			28.039			-3.115
76001.000			28.038			-3.115
76101.000			28.037			-3.115
76200.000			28.036			-3.115
76300.000			28.037			-3.115
76401.000			28.035			-3.115
76500.000			28.034			-3.115
76600.000			28.033			-3.115
76702.000			28.031			-3.115
76801.000			28.031			-3.115
76901.000			28.031			-3.115
77001.000			28.030			-3.114
77100.000			28.028			-3.114
77200.000			28.028			-3.114
77301.000			28.028			-3.114
77400.000			28.027			-3.114
77500.000			28.025			-3.114
77602.000			28.024			-3.114
77701.000			28.024			-3.114
77800.000			28.023			-3.114
77900.000			28.022			-3.114
78000.000			28.022			-3.114
78101.000			28.021			-3.113
78200.000			28.020			-3.113
78300.000			28.019			-3.113
78402.000			28.019			-3.113
78501.000			28.018			-3.113
78600.000			28.016			-3.113
78701.000			28.016			-3.113
78800.000			28.015			-3.113
78900.000			28.014			-3.113
79001.000			28.014			-3.113
79100.000			28.012			-3.112
79201.000			28.012			-3.112
79302.000			28.010			-3.112
79400.000			28.010			-3.112
79500.000			28.009			-3.112
79601.000			28.008			-3.112
79700.000			28.007			-3.112
79800.000			28.006			-3.112
79901.000			28.006			-3.112
80001.000			28.005			-3.112
80101.000			28.004			-3.112
80201.000			28.003			-3.111
80300.000			28.003			-3.111
80400.000			28.001			-3.111
80501.000			28.000			-3.111
80600.000			28.001			-3.111
80700.000			28.001			-3.111
80802.000			27.999			-3.111
80901.000			27.998			-3.111
81000.000			27.998			-3.111
81100.000			27.996			-3.111
81200.000			27.995			-3.111
81301.000			27.994			-3.110
81400.000			27.994			-3.110
81500.000			27.993			-3.110
81601.000			27.992			-3.110
81701.000			27.992			-3.110
81801.000			27.991			-3.110
81901.000			27.990			-3.110
82000.000			27.989			-3.110
82100.000			27.988			-3.110
82201.000			27.988			-3.110
82300.000			27.988			-3.110
82400.000			27.986			-3.110
82502.000			27.985			-3.109
82601.000			27.984			-3.109
82701.000			27.983			-3.109
82801.000			27.983			-3.109
82900.000			27.982			-3.109
83000.000			27.982			-3.109
83101.000			27.981			-3.109
83200.000			27.980			-3.109
83300.000			27.979			-3.109
83402.000			27.977			-3.109
83501.000			27.977			-3.109
83600.000			27.977			-3.109
83701.000			27.976			-3.108
83800.000			27.975			-3.108
83900.000			27.975			-3.108
84001.000			27.974			-3.108
84100.000			27.973			-3.108
84200.000			27.971			-3.108
84302.000			27.971			-3.108
84401.000			27.970			-3.108
84501.000			27.969			-3.108
84600.000			27.969			-3.108
84700.000			27.968			-3.108
84801.000			27.966			-3.107
84900.000			27.966			-3.107
85000.000			27.965			-3.107
85102.000			27.965			-3.107
85201.000			27.964			-3.107
85301.000			27.963			-3.107
85401.000			27.963			-3.107
85500.000			27.960			-3.107
85600.000			27.961			-3.107
85701.000			27.960			-3.107
85800.000			27.959			-3.107
85900.000			27.959			-3.107
86002.000			27.958			-3.106
86101.000			27.957			-3.106
86200.000			27.956			-3.106
86301.000			27.955			-3.106
86400.000			27.955			-3.106
86500.000			27.956			-3.106
86601.000			27.953			-3.106
86700.000			27.952			-3.106
86800.000			27.951			-3.106
86902.000			27.950			-3.106
87001.000			27.950			-3.106
87100.000			27.949			-3.105
87201.000			27.949			-3.105
87300.000			27.947			-3.105
87400.000			27.946			-3.105
87500.000			27.946			-3.105
87600.000			27.946			-3.105
87702.000			27.945			-3.105
87801.000			27.943			-3.105
87901.000			27.943			-3.105
88001.000			27.943			-3.105
88100.000			27.942			-3.105
88200.000			27.941			-3.105
88301.000			27.939			-3.104
88400.000			27.939			-3.104
88500.000			27.940			-3.104
88602.000			27.938			-3.104
88701.000			27.938			-3.104
88800.000			27.937			-3.104
88901.000			27.936			-3.104
89000.000			27.935			-3.104
89100.000			27.934			-3.104
89201.000			27.933			-3.104
89300.000			27.933			-3.104
89400.000			27.933			-3.104
89502.000			27.933			-3.104
89601.000			27.931			-3.103
89700.000			27.930			-3.103
89801.000			27.930			-3.103
89900.000			27.929			-3.103
90000.000			27.929			-3.103
90101.000			27.928			-3.103
90200.000			27.927			-3.103
90301.000			27.926			-3.103
90402.000			27.925			-3.103
90501.000			27.926			-3.103
90600.000			27.925			-3.103
90700.000			27.923			-3.103
90800.000			27.922			-3.102
90901.000			27.922			-3.102
91000.000			27.920			-3.102
91100.000			27.920			-3.102
91202.000			27.919			-3.102
91301.000			27.918			-3.102
91400.000			27.918			-3.102
91501.000			27.918			-3.102
91600.000			27.917			-3.102
91700.000			27.916			-3.102
91801.000			27.915			-3.102
91900.000			27.915			-3.102
92001.000			27.914			-3.102
92102.000			27.913			-3.101
92200.000			27.912			-3.101
92300.000			27.911			-3.101
92401.000			27.911			-3.101
92500.000			27.910			-3.101
92600.000			27.909			-3.101
92701.000			27.908			-3.101
92800.000			27.908			-3.101
92901.000			27.908			-3.101
93002.000			27.907			-3.101
93100.000			27.906			-3.101
93200.000			27.904			-3.100
93301.000			27.904			-3.100
93400.000			27.903			-3.100
93500.000			27.902			-3.100
93601.000			27.902			-3.100
93701.000			27.902			-3.100
93802.000			27.900			-3.100
93900.000			27.900			-3.100
94000.000			27.899			-3.100
94101.000			27.898			-3.100
94200.000			27.898			-3.100
94300.000			27.898			-3.100
94401.000			27.898			-3.100
94500.000			27.896			-3.100
94601.000			27.895			-3.099
94702.000			27.893			-3.099
94800.000			27.894			-3.099
94900.000			27.894			-3.099
95001.000			27.893			-3.099
95100.000			27.891			-3.099
95200.000			27.891			-3.099
95301.000			27.890			-3.099
95401.000			27.889			-3.099
95501.000			27.889			-3.099
95602.000			27.888			-3.099
95700.000			27.887			-3.099
95800.000			27.887			-3.099
95901.000			27.886			-3.098
96000.000			27.885			-3.098
96100.000			27.884			-3.098
96201.000			27.884			-3.098
96301.000			27.883			-3.098
96401.000			27.882			-3.098
96502.000			27.881			-3.098
96600.000			27.881			-3.098
96700.000			27.881			-3.098
96801.000			27.880			-3.098
96900.000			27.880			-3.098
97000.000			27.878			-3.098
97100.000			27.877			-3.097
97201.000			27.877			-3.097
97302.000			27.877			-3.097
97400.000			27.876			-3.097
97500.000			27.875			-3.097
97601.000			27.874			-3.097
97700.000			27.873			-3.097
97800.000			27.873			-3.097
97901.000			27.873			-3.097
98000.000			27.872			-3.097
98101.000			27.871			-3.097
98202.000			27.871			-3.097
98300.000			27.870			-3.097
98400.000			27.869			-3.097
98501.000			27.869			-3.097
98600.000			27.868			-3.096
98700.000			27.867			-3.096
98801.000			27.867			-3.096
98900.000			27.866			-3.096
99001.000			27.865			-3.096
99102.000			27.864			-3.096
99200.000			27.864			-3.096
99300.000			27.864			-3.096
99401.000			27.863			-3.096
99500.000			27.862			-3.096
99600.000			27.861			-3.096
99701.000			27.861			-3.096
99801.000			27.859			-3.095
99901.000			27.858			-3.095
100002.000			27.857			-3.095
100100.000			27.858			-3.095
100200.000			27.858			-3.095
100300.000			27.857			-3.095
100400.000			27.857			-3.095
100501.000			27.855			-3.095
100600.000			27.854			-3.095
100701.000			27.853			-3.095
100802.000			27.853			-3.095
100901.000			27.853			-3.095
101000.000			27.851			-3.095
101101.000			27.851			-3.095
101200.000			27.851			-3.095
101300.000			27.850			-3.094
101401.000			27.849			-3.094
101500.000			27.848			-3.094
101601.000			27.848			-3.094
101702.000			27.848			-3.094
101800.000			27.847			-3.094
101900.000			27.846			-3.094
102001.000			27.846			-3.094
102100.000			27.845			-3.094
102200.000			27.845			-3.094
102301.000			27.845			-3.094
102401.000			27.843			-3.094
102501.000			27.842			-3.094
102601.000			27.842			-3.094
102700.000			27.841			-3.093
102800.000			27.840			-3.093
102901.000			27.839			-3.093
103000.000			27.839			-3.093
103100.000			27.838			-3.093
103201.000			27.837			-3.093
103301.000			27.838			-3.093
103402.000			27.836			-3.093
103500.000			27.835			-3.093
103600.000			27.835			-3.093
103701.000			27.835			-3.093
103800.000			27.834			-3.093
103900.000			27.834			-3.093
104001.000			27.834			-3.093
104101.000			27.832			-3.092
104201.000			27.831			-3.092
104302.000			27.831			-3.092
104400.000			27.831			-3.092
104500.000			27.829			-3.092
104601.000			27.828			-3.092
104700.000			27.828			-3.092
104800.000			27.828			-3.092
104901.000			27.827			-3.092
105001.000			27.826			-3.092
105101.000			27.826			-3.092
105201.000			27.825			-3.092
105300.000			27.824			-3.092
105400.000			27.824			-3.092
105501.000			27.824			-3.092
105600.000			27.824			-3.092
105700.000			27.822			-3.091
105802.000			27.821			-3.091
105901.000			27.822			-3.091
106001.000			27.820			-3.091
106101.000			27.819			-3.091
106200.000			27.819			-3.091
106300.000			27.818			-3.091
106401.000			27.817			-3.091
106500.000			27.817			-3.091
106600.000			27.816			-3.091
106702.000			27.815			-3.091
106801.000			27.815			-3.091
106901.000			27.815			-3.091
107000.000			27.815			-3.091
107100.000			27.814			-3.090
107201.000			27.812			-3.090
107300.000			27.812			-3.090
107400.000			27.812			-3.090
107502.000			27.811			-3.090
107601.000			27.810			-3.090
107701.000			27.809			-3.090
107801.000			27.808			-3.090
107900.000			27.807			-3.090
108000.000			27.806			-3.090
108101.000			27.806			-3.090
108200.000			27.805			-3.089
108300.000			27.805			-3.089
108402.000			27.805			-3.089
108501.000			27.805			-3.089
108601.000			27.804			-3.089
108701.000			27.804			-3.089
108800.000			27.802			-3.089
108900.000			27.801			-3.089
109001.000			27.802			-3.089
109100.000			27.800			-3.089
109200.000			27.799			-3.089
109302.000			27.799			-3.089
109401.000			27.799			-3.089
109500.000			27.798			-3.089
109601.000			27.797			-3.089
109700.000			27.799			-3.089
109800.000			27.798			-3.089
109900.000			27.797			-3.089
110000.000			27.796			-3.088
110101.000			27.794			-3.088
110201.000			27.794			-3.088
110301.000			27.793			-3.088
110401.000			27.793			-3.088
110500.000			27.793			-3.088
110600.000			27.792			-3.088
110701.000			27.792			-3.088
110800.000			27.789			-3.088
110900.000			27.789			-3.088
111001.000			27.789			-3.088
111101.000			27.790			-3.088
111201.000			27.788			-3.088
111301.000			27.787			-3.087
111400.000			27.787			-3.087
111500.000			27.786			-3.087
111601.000			27.786			-3.087
111700.000			27.786			-3.087
111800.000			27.786			-3.087
111901.000			27.785			-3.087
112001.000			27.785			-3.087
112101.000			27.784			-3.087
112201.000			27.782			-3.087
112300.000			27.781			-3.087
112400.000			27.780			-3.087
112501.000			27.780			-3.087
112600.000			27.779			-3.087
112700.000			27.779			-3.087
112801.000			27.778			-3.086
112901.000			27.778			-3.086
113002.000			27.776			-3.086
113100.000			27.777			-3.086
113200.000			27.776			-3.086
113301.000			27.775			-3.086
113400.000			27.775			-3.086
113500.000			27.774			-3.086
113601.000			27.773			-3.086
113701.000			27.773			-3.086
113801.000			27.772			-3.086
113902.000			27.772			-3.086
114000.000			27.772			-3.086
114100.000			27.771			-3.086
114201.000			27.770			-3.086
114300.000			27.770			-3.086
114400.000			27.769			-3.085
114501.000			27.767			-3.085
114601.000			27.767			-3.085
114701.000			27.767			-3.085
114801.000			27.766			-3.085
114900.000			27.765			-3.085
115000.000			27.766			-3.085
115101.000			27.766			-3.085
115200.000			27.764			-3.085
115300.000			27.763			-3.085
115401.000			27.763			-3.085
115501.000			27.762			-3.085
115601.000			27.763			-3.085
115701.000			27.762			-3.085
115800.000			27.762			-3.085
115900.000			27.760			-3.084
116001.000			27.759			-3.084
116100.000			27.758			-3.084
116200.000			27.758			-3.084
116302.000			27.757			-3.084
116401.000			27.757			-3.084
116502.000			27.757			-3.084
116600.000			27.755			-3.084
116700.000			27.756			-3.084
116801.000			27.755			-3.084
116900.000			27.754			-3.084
117000.000			27.754			-3.084
117101.000			27.753			-3.084
117201.000			27.752			-3.084
117301.000			27.751			-3.083
117402.000			27.752			-3.084
117500.000			27.751			-3.083
117600.000			27.751			-3.083
117701.000			27.750			-3.083
117800.000			27.749			-3.083
117900.000			27.749			-3.083
118001.000			27.748			-3.083
118101.000			27.748			-3.083
118201.000			27.747			-3.083
118301.000			27.747			-3.083
118400.000			27.746			-3.083
118500.000			27.745			-3.083
118601.000			27.745			-3.083
118700.000			27.744			-3.083
118800.000			27.744			-3.083
118901.000			27.743			-3.083
119001.000			27.741			-3.082
119101.000			27.741			-3.082
119201.000			27.742			-3.082
119300.000			27.742			-3.082
119400.000			27.740			-3.082
119500.000			27.739			-3.082
119600.000			27.739			-3.082
119701.000			27.739			-3.082
119801.000			27.738			-3.082
119901.000			27.738			-3.082
120002.000			27.738			-3.082
120100.000			27.737			-3.082
120200.000			27.737			-3.082
120301.000			27.736			-3.082
120400.000			27.735			-3.082
120500.000			27.734			-3.082
120601.000			27.734			-3.082
120701.000			27.733			-3.081
120801.000			27.733			-3.081
120901.000			27.732			-3.081
121000.000			27.731			-3.081
121100.000			27.730			-3.081
121201.000			27.730			-3.081
121300.000			27.729			-3.081
121400.000			27.729			-3.081
121502.000			27.729			-3.081
121601.000			27.728			-3.081
121701.000			27.728			-3.081
121801.000			27.727			-3.081
121900.000			27.726			-3.081
122000.000			27.726			-3.081
122101.000			27.725			-3.081
122200.000			27.726			-3.081
122300.000			27.725			-3.081
122402.000			27.724			-3.080
122501.000			27.723			-3.080
122600.000			27.722			-3.080
122700.000			27.722			-3.080
122800.000			27.722			-3.080
122901.000			27.721			-3.080
123000.000			27.720			-3.080
123100.000			27.720			-3.080
123201.000			27.719			-3.080
123301.000			27.719			-3.080
123401.000			27.718			-3.080
123501.000			27.717			-3.080
123600.000			27.718			-3.080
123700.000			27.718			-3.080
123801.000			27.717			-3.080
123900.000			27.716			-3.080
124000.000			27.715			-3.079
124102.000			27.714			-3.079
124201.000			27.714			-3.079
124300.000			27.714			-3.079
124401.000			27.713			-3.079
124500.000			27.712			-3.079
124600.000			27.713			-3.079
124701.000			27.713			-3.079
124800.000			27.712			-3.079
124900.000			27.711			-3.079
125002.000			27.710			-3.079
125101.000			27.710			-3.079
125200.000			27.709			-3.079
125301.000			27.708			-3.079
125400.000			27.708			-3.079
125500.000			27.708			-3.079
125601.000			27.708			-3.079
125700.000			27.707			-3.079
125802.000			27.707			-3.079
125901.000			27.706			-3.078
126001.000			27.704			-3.078
126101.000			27.704			-3.078
126200.000			27.704			-3.078
126300.000			27.704			-3.078
126401.000			27.703			-3.078
126500.000			27.703			-3.078
126600.000			27.703			-3.078
126702.000			27.702			-3.078
126801.000			27.701			-3.078
126900.000			27.701			-3.078
127001.000			27.700			-3.078
127100.000			27.700			-3.078
127200.000			27.700			-3.078
127301.000			27.698			-3.078
127400.000			27.698			-3.078
127500.000			27.698			-3.078
127602.000			27.697			-3.077
127701.000			27.696			-3.077
127800.000			27.695			-3.077
127901.000			27.695			-3.077
128000.000			27.694			-3.077
128100.000			27.693			-3.077
128201.000			27.694			-3.077
128300.000			27.693			-3.077
128400.000			27.691			-3.077
128502.000			27.691			-3.077
128601.000			27.690			-3.077
128700.000			27.690			-3.077
128801.000			27.690			-3.077
128900.000			27.689			-3.077
129000.000			27.689			-3.077
129100.000			27.688			-3.076
129200.000			27.687			-3.076
129301.000			27.687			-3.076
129401.000			27.687			-3.076
129501.000			27.687			-3.076
129601.000			27.686			-3.076
129700.000			27.686			-3.076
129800.000			27.685			-3.076
129901.000			27.685			-3.076
130000.000			27.685			-3.076
130100.000			27.684			-3.076
130201.000			27.683			-3.076
130301.000			27.682			-3.076
130401.000			27.681			-3.076
130501.000			27.680			-3.076
130600.000			27.680			-3.076
130700.000			27.681			-3.076
130801.000			27.681			-3.076
130900.000			27.679			-3.075
131000.000			27.678			-3.075
131102.000			27.679			-3.075
131201.000			27.678			-3.075
131301.000			27.676			-3.075
131401.000			27.677			-3.075
131500.000			27.676			-3.075
131600.000			27.675			-3.075
131701.000			27.675			-3.075
131800.000			27.674			-3.075
131900.000			27.674			-3.075
132001.000			27.674			-3.075
132101.000			27.673			-3.075
132202.000			27.672			-3.075
132301.000			27.672			-3.075
132400.000			27.671			-3.075
132501.000			27.671			-3.075
132600.000			27.670			-3.074
132700.000			27.670			-3.074
132801.000			27.671			-3.075
132900.000			27.670			-3.074
133001.000			27.669			-3.074
133102.000			27.668			-3.074
133201.000			27.668			-3.074
133300.000			27.667			-3.074
133401.000			27.666			-3.074
133500.000			27.666			-3.074
133600.000			27.666			-3.074
133701.000			27.666			-3.074
133800.000			27.665			-3.074
133900.000			27.664			-3.074
134002.000			27.663			-3.074
134101.000			27.663			-3.074
134200.000			27.664			-3.074
134301.000			27.663			-3.074
134400.000			27.662			-3.074
134500.000			27.661			-3.073
134601.000			27.661			-3.073
134700.000			27.661			-3.073
134800.000			27.660			-3.073
134901.000			27.658			-3.073
135001.000			27.660			-3.073
135101.000			27.659			-3.073
135201.000			27.659			-3.073
135300.000			27.659			-3.073
135400.000			27.657			-3.073
135500.000			27.656			-3.073
135600.000			27.655			-3.073
135701.000			27.655			-3.073
135800.000			27.655			-3.073
135901.000			27.654			-3.073
136002.000			27.653			-3.073
136101.000			27.654			-3.073
136200.000			27.654			-3.073
136301.000			27.653			-3.073
136400.000			27.653			-3.073
136500.000			27.652			-3.072
136601.000			27.651			-3.072
136700.000			27.651			-3.072
136800.000			27.650			-3.072
136902.000			27.650			-3.072
137001.000			27.650			-3.072
137100.000			27.648			-3.072
137201.000			27.648			-3.072
137300.000			27.649			-3.072
137400.000			27.649			-3.072
137501.000			27.648			-3.072
137600.000			27.647			-3.072
137700.000			27.646			-3.072
137802.000			27.645			-3.072
137901.000			27.645			-3.072
138001.000			27.645			-3.072
138101.000			27.645			-3.072
138200.000			27.643			-3.071
138300.000			27.642			-3.071
138401.000			27.643			-3.071
138500.000			27.642			-3.071
138600.000			27.642			-3.071
138700.000			27.642			-3.071
138801.000			27.640			-3.071
138902.000			27.640			-3.071
139001.000			27.639			-3.071
139100.000			27.638			-3.071
139201.000			27.638			-3.071
139300.000			27.638			-3.071
139400.000			27.638			-3.071
139501.000			27.638			-3.071
139600.000			27.636			-3.071
139700.000			27.636			-3.071
139802.000			27.636			-3.071
139901.000			27.635			-3.071
140000.000			27.634			-3.070
140101.000			27.634			-3.070
140200.000			27.634			-3.070
140300.000			27.634			-3.070
140401.000			27.633			-3.070
140500.000			27.632			-3.070
140600.000			27.633			-3.070
140702.000			27.633			-3.070
140801.000			27.631			-3.070
140901.000			27.630			-3.070
141001.000			27.630			-3.070
141100.000			27.629			-3.070
141200.000			27.630			-3.070
141301.000			27.629			-3.070
141400.000			27.628			-3.070
141500.000			27.628			-3.070
141602.000			27.628			-3.070
141701.000			27.627			-3.070
141802.000			27.626			-3.070
141900.000			27.626			-3.070
142000.000			27.626			-3.070
142101.000			27.625			-3.069
142200.000			27.625			-3.069
142300.000			27.623			-3.069
142401.000			27.623			-3.069
142500.000			27.623			-3.069
142601.000			27.622			-3.069
142702.000			27.622			-3.069
142800.000			27.621			-3.069
142900.000			27.621			-3.069
143001.000			27.620			-3.069
143100.000			27.619			-3.069
143200.000			27.619			-3.069
143301.000			27.619			-3.069
143400.000			27.619			-3.069
143501.000			27.619			-3.069
143602.000			27.618			-3.069
143701.000			27.617			-3.069
143800.000			27.617			-3.069
143901.000			27.617			-3.069
144000.000			27.617			-3.069
144100.000			27.617			-3.069
144201.000			27.615			-3.068
144300.000			27.614			-3.068
144401.000			27.614			-3.068
144502.000			27.613			-3.068
144601.000			27.612			-3.068
144700.000			27.613			-3.068
144801.000			27.613			-3.068
144900.000			27.612			-3.068
145000.000			27.611			-3.068
145100.000			27.611			-3.068
145200.000			27.609			-3.068
145301.000			27.609			-3.068
145401.000			27.609			-3.068
145501.000			27.609			-3.068
145601.000			27.608			-3.068
145700.000			27.608			-3.068
145800.000			27.607			-3.067
145901.000			27.607			-3.067
146000.000			27.606			-3.067
146100.000			27.605			-3.067
146201.000			27.606			-3.067
146301.000			27.605			-3.067
146401.000			27.606			-3.067
146502.000			27.605			-3.067
146600.000			27.604			-3.067
146700.000			27.603			-3.067
146801.000			27.603			-3.067
146900.000			27.603			-3.067
147000.000			27.602			-3.067
147101.000			27.602			-3.067
147200.000			27.602			-3.067
147301.000			27.602			-3.067
147402.000			27.599			-3.067
147500.000			27.599			-3.067
147600.000			27.599			-3.067
147701.000			27.599			-3.067
147800.000			27.599			-3.067
147900.000			27.598			-3.066
148001.000			27.598			-3.066
148100.000			27.596			-3.066
148200.000			27.596			-3.066
148302.000			27.597			-3.066
148401.000			27.596			-3.066
148501.000			27.595			-3.066
148600.000			27.594			-3.066
148700.000			27.595			-3.066
148801.000			27.594			-3.066
148900.000			27.593			-3.066
149000.000			27.593			-3.066
149101.000			27.592			-3.066
149201.000			27.591			-3.066
149301.000			27.591			-3.066
149402.000			27.591			-3.066
149500.000			27.591			-3.066
149600.000			27.590			-3.066
149701.000			27.590			-3.066
149800.000			27.589			-3.065
149900.000			27.588			-3.065
150001.000			27.587			-3.065
150100.000			27.587			-3.065
150201.000			27.587			-3.065
150302.000			27.587			-3.065
150401.000			27.585			-3.065
150500.000			27.585			-3.065
150601.000			27.586			-3.065
150700.000			27.586			-3.065
150800.000			27.584			-3.065
150901.000			27.584			-3.065
151000.000			27.584			-3.065
151100.000			27.583			-3.065
151202.000			27.584			-3.065
151301.000			27.584			-3.065
151402.000			27.582			-3.065
151500.000			27.581			-3.065
151600.000			27.580			-3.064
151701.000			27.581			-3.065
151800.000			27.580			-3.064
151900.000			27.580			-3.064
152001.000			27.580			-3.064
152100.000			27.580			-3.064
152201.000			27.580			-3.064
152302.000			27.578			-3.064
152400.000			27.578			-3.064
152500.000			27.577			-3.064
152601.000			27.578			-3.064
152700.000			27.576			-3.064
152800.000			27.576			-3.064
152901.000			27.576			-3.064
153000.000			27.574			-3.064
153101.000			27.575			-3.064
153202.000			27.575			-3.064
153301.000			27.575			-3.064
153400.000			27.575			-3.064
153501.000			27.571			-3.063
153600.000			27.574			-3.064
153700.000			27.573			-3.064
153801.000			27.572			-3.064
153900.000			27.572			-3.064
154000.000			27.570			-3.063
154102.000			27.570			-3.063
154201.000			27.569			-3.063
154300.000			27.568			-3.063
154401.000			27.568			-3.063
154500.000			27.569			-3.063
154600.000			27.569			-3.063
154700.000			27.567			-3.063
154800.000			27.567			-3.063
154901.000			27.567			-3.063
155000.000			27.566			-3.063
155101.000			27.566			-3.063
155202.000			27.566			-3.063
155300.000			27.565			-3.063
155400.000			27.564			-3.063
155501.000			27.563			-3.063
155600.000			27.563			-3.063
155700.000			27.563			-3.063
155801.000			27.563			-3.063
155900.000			27.562			-3.062
156001.000			27.561			-3.062
156102.000			27.562			-3.062
156201.000			27.561			-3.062
156300.000			27.560			-3.062
156401.000			27.560			-3.062
156500.000			27.561			-3.062
156600.000			27.560			-3.062
156701.000			27.559			-3.062
156800.000			27.559			-3.062
156900.000			27.558			-3.062
157002.000			27.558			-3.062
157101.000			27.557			-3.062
157200.000			27.557			-3.062
157301.000			27.556			-3.062
157400.000			27.556			-3.062
157500.000			27.556			-3.062
157601.000			27.555			-3.062
157700.000			27.554			-3.062
157800.000			27.554			-3.062
157900.000			27.554			-3.062
158001.000			27.555			-3.062
158102.000			27.554			-3.062
158200.000			27.553			-3.061
158300.000			27.552			-3.061
158401.000			27.553			-3.061
158500.000			27.553			-3.061
158600.000			27.551			-3.061
158701.000			27.550			-3.061
158800.000			27.550			-3.061
158900.000			27.550			-3.061
159002.000			27.550			-3.061
159101.000			27.548			-3.061
159200.000			27.549			-3.061
159301.000			27.548			-3.061
159400.000			27.547			-3.061
159500.000			27.547			-3.061
159601.000			27.546			-3.061
159700.000			27.547			-3.061
159800.000			27.547			-3.061
159901.000			27.546			-3.061
160001.000			27.546			-3.061
160101.000			27.546			-3.061
160201.000			27.545			-3.061
160300.000			27.545			-3.061
160400.000			27.544			-3.060
160501.000			27.543			-3.060
160600.000			27.542			-3.060
160700.000			27.542			-3.060
160801.000			27.542			-3.060
160901.000			27.542			-3.060
161002.000			27.541			-3.060
161101.000			27.541			-3.060
161200.000			27.541			-3.060
161301.000			27.539			-3.060
161400.000			27.540			-3.060
161500.000			27.540			-3.060
161601.000			27.539			-3.060
161700.000			27.538			-3.060
161801.000			27.537			-3.060
161902.000			27.536			-3.060
162001.000			27.536			-3.060
162100.000			27.536			-3.060
162201.000			27.536			-3.060
162300.000			27.536			-3.060
162400.000			27.536			-3.060
162501.000			27.537			-3.060
162600.000			27.535			-3.059
162700.000			27.535			-3.059
162802.000			27.534			-3.059
162901.000			27.533			-3.059
163000.000			27.532			-3.059
163101.000			27.532			-3.059
163200.000			27.532			-3.059
163300.000			27.532			-3.059
163401.000			27.530			-3.059
163500.000			27.531			-3.059
163600.000			27.531			-3.059
163702.000			27.530			-3.059
163801.000			27.529			-3.059
163901.000			27.528			-3.059
164001.000			27.528			-3.059
164100.000			27.529			-3.059
164200.000			27.529			-3.059
164300.000			27.527			-3.059
164400.000			27.527			-3.059
164501.000			27.527			-3.059
164600.000			27.526			-3.058
164701.000			27.526			-3.058
164802.000			27.525			-3.058
164900.000			27.524			-3.058
165000.000			27.524			-3.058
165101.000			27.523			-3.058
165200.000			27.523			-3.058
165300.000			27.523			-3.058
165401.000			27.523			-3.058
165500.000			27.522			-3.058
165601.000			27.522			-3.058
165702.000			27.522			-3.058
165801.000			27.521			-3.058
165900.000			27.521			-3.058
166001.000			27.520			-3.058
166100.000			27.519			-3.058
166200.000			27.520			-3.058
166301.000			27.520			-3.058
166400.000			27.519			-3.058
166500.000			27.518			-3.058
166602.000			27.519			-3.058
166701.000			27.518			-3.058
166800.000			27.517			-3.057
166901.000			27.517			-3.057
167000.000			27.516			-3.057
167100.000			27.516			-3.057
167201.000			27.516			-3.057
167300.000			27.516			-3.057
167400.000			27.516			-3.057
167502.000			27.516			-3.057
167601.000			27.514			-3.057
167702.000			27.513			-3.057
167800.000			27.514			-3.057
167900.000			27.513			-3.057
168001.000			27.514			-3.057
168100.000			27.513			-3.057
168200.000			27.513			-3.057
168301.000			27.512			-3.057
168400.000			27.511			-3.057
168501.000			27.511			-3.057
168602.000			27.510			-3.057
168701.000			27.509			-3.057
168800.000			27.508			-3.056
168901.000			27.509			-3.057
169000.000			27.509			-3.057
169100.000			27.508			-3.056
169201.000			27.509			-3.057
169300.000			27.508			-3.056
169400.000			27.506			-3.056
169502.000			27.506			-3.056
169601.000			27.506			-3.056
169700.000			27.506			-3.056
169801.000			27.505			-3.056
169900.000			27.505			-3.056
170000.000			27.504			-3.056
170101.000			27.505			-3.056
170200.000			27.504			-3.056
170300.000			27.504			-3.056
170402.000			27.505			-3.056
170501.000			27.503			-3.056
170602.000			27.502			-3.056
170700.000			27.502			-3.056
170800.000			27.502			-3.056
170901.000			27.501			-3.056
171000.000			27.501			-3.056
171100.000			27.501			-3.056
171201.000			27.501			-3.056
171301.000			27.500			-3.056
171401.000			27.501			-3.056
171502.000			27.501			-3.056
171600.000			27.499			-3.055
171700.000			27.499			-3.055
171801.000			27.498			-3.055
171900.000			27.498			-3.055
172000.000			27.497			-3.055
172101.000			27.496			-3.055
172200.000			27.496			-3.055
172301.000			27.496			-3.055
172402.000			27.495			-3.055
172500.000			27.495			-3.055
172600.000			27.494			-3.055
172701.000			27.496			-3.055
172800.000			27.495			-3.055
172900.000			27.494			-3.055
173001.000			27.494			-3.055
173100.000			27.493			-3.055
173200.000			27.492			-3.055
173302.000			27.493			-3.055
173401.000			27.492			-3.055
173500.000			27.492			-3.055
173601.000			27.492			-3.055
173700.000			27.491			-3.055
173800.000			27.489			-3.054
173900.000			27.488			-3.054
174000.000			27.489			-3.054
174101.000			27.489			-3.054
174201.000			27.489			-3.054
174301.000			27.488			-3.054
174402.000			27.488			-3.054
174500.000			27.487			-3.054
174600.000			27.487			-3.054
174701.000			27.487			-3.054
174800.000			27.485			-3.054
174900.000			27.485			-3.054
175001.000			27.485			-3.054
175100.000			27.485			-3.054
175200.000			27.485			-3.054
175302.000			27.485			-3.054
175401.000			27.485			-3.054
175500.000			27.485			-3.054
175601.000			27.483			-3.054
175700.000			27.483			-3.054
175800.000			27.483			-3.054
175901.000			27.482			-3.054
176000.000			27.481			-3.053
176100.000			27.481			-3.053
176202.000			27.481			-3.053
176301.000			27.481			-3.053
176401.000			27.480			-3.053
176501.000			27.480			-3.053
176600.000			27.481			-3.053
176700.000			27.479			-3.053
176801.000			27.478			-3.053
176900.000			27.478			-3.053
177000.000			27.479			-3.053
177100.000			27.478			-3.053
177201.000			27.478			-3.053
177302.000			27.477			-3.053
177401.000			27.477			-3.053
177500.000			27.476			-3.053
177601.000			27.476			-3.053
177700.000			27.476			-3.053
177800.000			27.476			-3.053
177901.000			27.475			-3.053
178000.000			27.474			-3.053
178100.000			27.474			-3.053
178202.000			27.473			-3.053
178301.000			27.473			-3.053
178401.000			27.473			-3.053
178501.000			27.473			-3.053
178600.000			27.472			-3.052
178700.000			27.472			-3.052
178801.000			27.472			-3.052
178900.000			27.472			-3.052
179000.000			27.471			-3.052
179101.000			27.470			-3.052
179201.000			27.470			-3.052
179301.000			27.470			-3.052
179402.000			27.469			-3.052
179500.000			27.469			-3.052
179600.000			27.468			-3.052
179701.000			27.468			-3.052
179800.000			27.468			-3.052
179900.000			27.467			-3.052
180001.000			27.467			-3.052
180100.000			27.466			-3.052
180202.000			27.466			-3.052
180301.000			27.466			-3.052
180401.000			27.464			-3.052
180501.000			27.465			-3.052
180600.000			27.464			-3.052
180700.000			27.464			-3.052
180801.000			27.464			-3.052
180900.000			27.464			-3.052
181000.000			27.465			-3.052
181101.000			27.463			-3.051
181201.000			27.463			-3.051
181301.000			27.462			-3.051
181401.000			27.462			-3.051
181500.000			27.462			-3.051
181600.000			27.462			-3.051
181701.000			27.460			-3.051
181800.000			27.460			-3.051
181900.000			27.459			-3.051
182001.000			27.459			-3.051
182101.000			27.459			-3.051
182201.000			27.458			-3.051
182302.000			27.459			-3.051
182400.000			27.459			-3.051
182500.000			27.458			-3.051
182601.000			27.457			-3.051
182700.000			27.458			-3.051
182800.000			27.457			-3.051
182901.000			27.456			-3.051
183000.000			27.456			-3.051
183101.000			27.456			-3.051
183202.000			27.455			-3.051
183301.000			27.455			-3.051
183400.000			27.455			-3.051
183500.000			27.454			-3.050
183600.000			27.453			-3.050
183701.000			27.453			-3.050
183800.000			27.453			-3.050
183900.000			27.453			-3.050
184001.000			27.454			-3.050
184101.000			27.453			-3.050
184201.000			27.453			-3.050
184301.000			27.453			-3.050
184400.000			27.451			-3.050
184500.000			27.451			-3.050
184601.000			27.451			-3.050
184700.000			27.449			-3.050
184800.000			27.449			-3.050
184901.000			27.449			-3.050
185001.000			27.449			-3.050
185101.000			27.449			-3.050
185202.000			27.448			-3.050
185300.000			27.448			-3.050
185400.000			27.448			-3.050
185501.000			27.447			-3.050
185600.000			27.447			-3.050
185700.000			27.447			-3.050
185801.000			27.446			-3.050
185900.000			27.445			-3.049
186001.000			27.446			-3.050
186102.000			27.445			-3.049
186201.000			27.445			-3.049
186300.000			27.445			-3.049
186401.000			27.444			-3.049
186500.000			27.444			-3.049
186600.000			27.444			-3.049
186700.000			27.444			-3.049
186800.000			27.444			-3.049
186901.000			27.443			-3.049
187001.000			27.441			-3.049
187101.000			27.441			-3.049
187201.000			27.441			-3.049
187300.000			27.440			-3.049
187400.000			27.440			-3.049
187501.000			27.440			-3.049
187600.000			27.440			-3.049
187700.000			27.439			-3.049
187801.000			27.438			-3.049
187901.000			27.438			-3.049
188001.000			27.437			-3.049
188102.000			27.437			-3.049
188200.000			27.438			-3.049
188300.000			27.437			-3.049
188401.000			27.437			-3.049
188500.000			27.436			-3.048
188600.000			27.435			-3.048
188701.000			27.436			-3.048
188800.000			27.436			-3.048
188900.000			27.435			-3.048
189002.000			27.435			-3.048
189101.000			27.435			-3.048
189200.000			27.434			-3.048
189301.000			27.434			-3.048
189400.000			27.434			-3.048
189500.000			27.434			-3.048
189601.000			27.433			-3.048
189700.000			27.431			-3.048
189800.000			27.431			-3.048
189900.000			27.432			-3.048
190001.000			27.431			-3.048
190102.000			27.430			-3.048
190200.000			27.430			-3.048
190300.000			27.430			-3.048
190401.000			27.430			-3.048
190500.000			27.429			-3.048
190600.000			27.429			-3.048
190701.000			27.429			-3.048
190800.000			27.427			-3.047
190901.000			27.428			-3.048
191002.000			27.428			-3.048
191101.000			27.428			-3.048
191200.000			27.428			-3.048
191301.000			27.427			-3.047
191400.000			27.426			-3.047
191500.000			27.425			-3.047
191601.000			27.425			-3.047
191700.000			27.424			-3.047
191800.000			27.424			-3.047
191902.000			27.425			-3.047
192001.000			27.425			-3.047
192100.000			27.423			-3.047
192201.000			27.423			-3.047
192300.000			27.422			-3.047
192400.000			27.422			-3.047
192501.000			27.422			-3.047
192600.000			27.422			-3.047
192700.000			27.422			-3.047
192802.000			27.421			-3.047
192901.000			27.421			-3.047
193002.000			27.421			-3.047
193100.000			27.421			-3.047
193200.000			27.419			-3.047
193301.000			27.419			-3.047
193400.000			27.419			-3.047
193500.000			27.418			-3.046
193601.000			27.418			-3.046
193700.000			27.419			-3.047
193801.000			27.418			-3.046
193902.000			27.417			-3.046
194000.000			27.417			-3.046
194100.000			27.416			-3.046
194201.000			27.416			-3.046
194300.000			27.416			-3.046
194400.000			27.415			-3.046
194501.000			27.415			-3.046
194600.000			27.416			-3.046
194700.000			27.414			-3.046
194802.000			27.413			-3.046
194901.000			27.414			-3.046
195000.000			27.414			-3.046
195101.000			27.413			-3.046
195200.000			27.412			-3.046
195300.000			27.412			-3.046
195401.000			27.412			-3.046
195500.000			27.412			-3.046
195600.000			27.412			-3.046
195702.000			27.411			-3.046
195801.000			27.410			-3.046
195901.000			27.410			-3.046
196001.000			27.410			-3.046
196100.000			27.410			-3.046
196200.000			27.409			-3.045
196300.000			27.408			-3.045
196400.000			27.408			-3.045
196501.000			27.408			-3.045
196600.000			27.407			-3.045
196701.000			27.408			-3.045
196802.000			27.407			-3.045
196900.000			27.406			-3.045
197000.000			27.407			-3.045
197101.000			27.407			-3.045
197200.000			27.406			-3.045
197300.000			27.405			-3.045
197401.000			27.406			-3.045
197500.000			27.405			-3.045
197600.000			27.404			-3.045
197702.000			27.404			-3.045
197801.000			27.405			-3.045
197900.000			27.404			-3.045
198001.000			27.403			-3.045
198100.000			27.403			-3.045
198200.000			27.403			-3.045
198301.000			27.401			-3.045
198400.000			27.401			-3.045
198500.000			27.401			-3.045
198602.000			27.402			-3.045
198701.000			27.401			-3.045
198801.000			27.401			-3.045
198901.000			27.401			-3.045
199000.000			27.400			-3.044
199100.000			27.399			-3.044
199201.000			27.400			-3.044
199300.000			27.399			-3.044
199400.000			27.399			-3.044
199500.000			27.400			-3.044
199601.000			27.399			-3.044
199702.000			27.399			-3.044
199801.000			27.399			-3.044
199900.000			27.399			-3.044
200001.000			27.398			-3.044
200100.000			27.398			-3.044
200200.000			27.397			-3.044
200301.000			27.397			-3.044
200400.000			27.397			-3.044
200500.000			27.396			-3.044
200602.000			27.395			-3.044
200701.000			27.396			-3.044
200800.000			27.396			-3.044
200901.000			27.394			-3.044
201000.000			27.393			-3.044
201100.000			27.394			-3.044
201201.000			27.394			-3.044
201300.000			27.395			-3.044
201400.000			27.393			-3.044
201502.000			27.392			-3.044
201601.000			27.393			-3.044
201701.000			27.392			-3.044
201801.000			27.392			-3.044
201900.000			27.391			-3.043
202000.000			27.391			-3.043
202101.000			27.391			-3.043
202200.000			27.390			-3.043
202300.000			27.389			-3.043
202401.000			27.390			-3.043
202501.000			27.389			-3.043
202602.000			27.389			-3.043
202700.000			27.387			-3.043
202800.000			27.387			-3.043
202901.000			27.387			-3.043
203000.000			27.388			-3.043
203100.000			27.386			-3.043
203201.000			27.387			-3.043
203300.000			27.387			-3.043
203401.000			27.387			-3.043
203502.000			27.387			-3.043
203601.000			27.386			-3.043
203700.000			27.385			-3.043
203801.000			27.384			-3.043
203900.000			27.384			-3.043
204000.000			27.383			-3.043
204101.000			27.384			-3.043
204200.000			27.382			-3.042
204300.000			27.382			-3.042
204402.000			27.382			-3.042
204501.000			27.382			-3.042
204600.000			27.381			-3.042
204701.000			27.381			-3.042
204800.000			27.380			-3.042
204900.000			27.381			-3.042
205001.000			27.380			-3.042
205100.000			27.381			-3.042
205200.000			27.380			-3.042
205302.000			27.379			-3.042
205401.000			27.379			-3.042
205500.000			27.378			-3.042
205601.000			27.377			-3.042
205700.000			27.377			-3.042
205800.000			27.378			-3.042
205900.000			27.377			-3.042
206000.000			27.377			-3.042
206101.000			27.377			-3.042
206200.000			27.376			-3.042
206301.000			27.375			-3.042
206402.000			27.375			-3.042
206500.000			27.375			-3.042
206600.000			27.375			-3.042
206701.000			27.376			-3.042
206800.000			27.373			-3.041
206900.000			27.374			-3.042
207001.000			27.373			-3.041
207100.000			27.373			-3.041
207201.000			27.372			-3.041
207302.000			27.372			-3.041
207400.000			27.372			-3.041
207500.000			27.372			-3.041
207601.000			27.371			-3.041
207700.000			27.370			-3.041
207800.000			27.370			-3.041
207901.000			27.369			-3.041
208000.000			27.370			-3.041
208101.000			27.370			-3.041
208202.000			27.369			-3.041
208301.000			27.368			-3.041
208400.000			27.367			-3.041
208501.000			27.368			-3.041
208600.000			27.368			-3.041
208700.000			27.367			-3.041
208801.000			27.367			-3.041
208900.000			27.367			-3.041
209000.000			27.365			-3.041
209102.000			27.366			-3.041
209201.000			27.366			-3.041
209302.000			27.365			-3.041
209400.000			27.366			-3.041
209500.000			27.365			-3.041
209601.000			27.365			-3.041
209700.000			27.364			-3.040
209800.000			27.363			-3.040
209901.000			27.364			-3.040
210000.000			27.363			-3.040
210101.000			27.362			-3.040
210202.000			27.362			-3.040
210300.000			27.363			-3.040
210400.000			27.362			-3.040
210501.000			27.362			-3.040
210600.000			27.361			-3.040
210700.000			27.360			-3.040
210801.000			27.361			-3.040
210900.000			27.362			-3.040
211001.000			27.360			-3.040
211102.000			27.360			-3.040
211200.000			27.360			-3.040
211300.000			27.360			-3.040
211401.000			27.359			-3.040
211500.000			27.358			-3.040
211600.000			27.358			-3.040
211701.000			27.359			-3.040
211800.000			27.357			-3.040
211901.000			27.357			-3.040
212002.000			27.357			-3.040
212101.000			27.356			-3.040
212200.000			27.355			-3.039
212300.000			27.355			-3.039
212400.000			27.356			-3.040
212501.000			27.355			-3.039
212600.000			27.356			-3.040
212700.000			27.354			-3.039
212802.000			27.354			-3.039
212901.000			27.353			-3.039
213001.000			27.353			-3.039
213101.000			27.353			-3.039
213200.000			27.353			-3.039
213300.000			27.352			-3.039
213401.000			27.352			-3.039
213500.000			27.352			-3.039
213600.000			27.351			-3.039
213702.000			27.351			-3.039
213801.000			27.351			-3.039
213901.000			27.350			-3.039
214001.000			27.351			-3.039
214100.000			27.350			-3.039
214200.000			27.350			-3.039
214301.000			27.350			-3.039
214400.000			27.349			-3.039
214500.000			27.348			-3.039
214601.000			27.349			-3.039
214701.000			27.348			-3.039
214801.000			27.349			-3.039
214901.000			27.348			-3.039
215000.000			27.347			-3.039
215100.000			27.346			-3.038
215201.000			27.347			-3.039
215300.000			27.347			-3.039
215400.000			27.347			-3.039
215500.000			27.347			-3.039
215601.000			27.346			-3.038
215702.000			27.345			-3.038
215801.000			27.345			-3.038
215900.000			27.345			-3.038
216001.000			27.345			-3.038
216100.000			27.343			-3.038
216200.000			27.343			-3.038
216301.000			27.343			-3.038
216400.000			27.343			-3.038
216500.000			27.342			-3.038
216602.000			27.342			-3.038
216701.000			27.343			-3.038
216800.000			27.344			-3.038
216901.000			27.342			-3.038
217000.000			27.342			-3.038
217100.000			27.342			-3.038
217201.000			27.341			-3.038
217300.000			27.340			-3.038
217400.000			27.340			-3.038
217502.000			27.341			-3.038
217601.000			27.341			-3.038
217700.000			27.340			-3.038
217801.000			27.340			-3.038
217900.000			27.340			-3.038
218000.000			27.338			-3.038
218101.000			27.338			-3.038
218200.000			27.338			-3.038
218300.000			27.338			-3.038
218402.000			27.337			-3.037
218501.000			27.336			-3.037
218602.000			27.337			-3.037
218700.000			27.337			-3.037
218800.000			27.336			-3.037
218901.000			27.336			-3.037
219000.000			27.336			-3.037
219100.000			27.335			-3.037
219201.000			27.335			-3.037
219300.000			27.335			-3.037
219401.000			27.334			-3.037
219502.000			27.334			-3.037
219600.000			27.333			-3.037
219700.000			27.333			-3.037
219801.000			27.334			-3.037
219900.000			27.334			-3.037
220000.000			27.332			-3.037
220101.000			27.332			-3.037
220200.000			27.332			-3.037
220301.000			27.332			-3.037
220402.000			27.332			-3.037
220500.000			27.331			-3.037
220600.000			27.331			-3.037
220701.000			27.330			-3.037
220800.000			27.329			-3.037
220900.000			27.329			-3.037
221001.000			27.329			-3.037
221100.000			27.329			-3.037
221201.000			27.328			-3.036
221302.000			27.329			-3.037
221400.000			27.328			-3.036
221500.000			27.328			-3.036
221601.000			27.327			-3.036
221700.000			27.327			-3.036
221800.000			27.327			-3.036
221900.000			27.326			-3.036
222000.000			27.325			-3.036
222102.000			27.324			-3.036
222201.000			27.325			-3.036
222300.000			27.325			-3.036
222401.000			27.325			-3.036
222500.000			27.325			-3.036
222600.000			27.324			-3.036
222701.000			27.323			-3.036
222800.000			27.323			-3.036
222900.000			27.322			-3.036
223002.000			27.322			-3.036
223101.000			27.323			-3.036
223201.000			27.322			-3.036
223301.000			27.321			-3.036
223400.000			27.321			-3.036
223500.000			27.321			-3.036
223601.000			27.321			-3.036
223700.000			27.319			-3.035
223800.000			27.320			-3.036
223902.000			27.319			-3.035
224001.000			27.320			-3.036
224101.000			27.320			-3.036
224201.000			27.319			-3.035
224300.000			27.318			-3.035
224400.000			27.318			-3.035
224501.000			27.317			-3.035
224600.000			27.318			-3.035
224700.000			27.317			-3.035
224801.000			27.316			-3.035
224901.000			27.317			-3.035
225002.000			27.316			-3.035
225100.000			27.315			-3.035
225200.000			27.315			-3.035
225301.000			27.315			-3.035
225400.000			27.315			-3.035
225500.000			27.314			-3.035
225601.000			27.313			-3.035
225700.000			27.314			-3.035
225801.000			27.314			-3.035
225902.000			27.313			-3.035
226000.000			27.312			-3.035
226100.000			27.311			-3.035
226201.000			27.312			-3.035
226300.000			27.312			-3.035
226400.000			27.312			-3.035
226501.000			27.311			-3.035
226600.000			27.312			-3.035
226701.000			27.311			-3.035
226802.000			27.310			-3.034
226901.000			27.309			-3.034
227000.000			27.310			-3.034
227101.000			27.311			-3.035
227200.000			27.310			-3.034
227300.000			27.308			-3.034
227401.000			27.309			-3.034
227500.000			27.310			-3.034
227601.000			27.309			-3.034
227702.000			27.308			-3.034
227801.000			27.307			-3.034
227900.000			27.307			-3.034
228001.000			27.306			-3.034
228100.000			27.306			-3.034
228200.000			27.306			-3.034
228300.000			27.307			-3.034
228400.000			27.306			-3.034
228501.000			27.305			-3.034
228601.000			27.304			-3.034
228701.000			27.303			-3.034
228801.000			27.304			-3.034
228900.000			27.304			-3.034
229000.000			27.304			-3.034
229101.000			27.304			-3.034
229200.000			27.304			-3.034
229300.000			27.303			-3.034
229401.000			27.302			-3.034
229501.000			27.303			-3.034
229601.000			27.303			-3.034
229701.000			27.302			-3.034
229800.000			27.301			-3.033
229900.000			27.301			-3.033
230001.000			27.301			-3.033
230100.000			27.301			-3.033
230200.000			27.301			-3.033
230301.000			27.300			-3.033
230401.000			27.300			-3.033
230501.000			27.300			-3.033
230601.000			27.300			-3.033
230700.000			27.299			-3.033
230800.000			27.299			-3.033
230901.000			27.299			-3.033
231000.000			27.298			-3.033
231100.000			27.298			-3.033
231201.000			27.299			-3.033
231301.000			27.299			-3.033
231402.000			27.298			-3.033
231501.000			27.298			-3.033
231600.000			27.297			-3.033
231701.000			27.297			-3.033
231800.000			27.297			-3.033
231900.000			27.296			-3.033
232001.000			27.295			-3.033
232100.000			27.295			-3.033
232200.000			27.294			-3.033
232302.000			27.294			-3.033
232401.000			27.293			-3.033
232500.000			27.293			-3.033
232601.000			27.293			-3.033
232700.000			27.292			-3.032
232800.000			27.292			-3.032
232901.000			27.292			-3.032
233000.000			27.292			-3.032
233100.000			27.292			-3.032
233202.000			27.290			-3.032
233301.000			27.291			-3.032
233401.000			27.291			-3.032
233501.000			27.291			-3.032
233600.000			27.290			-3.032
233700.000			27.290			-3.032
233801.000			27.290			-3.032
233900.000			27.289			-3.032
234000.000			27.289			-3.032
234101.000			27.289			-3.032
234201.000			27.289			-3.032
234301.000			27.289			-3.032
234401.000			27.289			-3.032
234500.000			27.288			-3.032
234600.000			27.287			-3.032
234700.000			27.285			-3.032
234800.000			27.286			-3.032
234901.000			27.286			-3.032
235000.000			27.286			-3.032
235100.000			27.286			-3.032
235202.000			27.286			-3.032
235301.000			27.285			-3.032
235400.000			27.286			-3.032
235501.000			27.285			-3.032
235600.000			27.284			-3.032
235700.000			27.284			-3.032
235801.000			27.285			-3.032
235900.000			27.283			-3.031
236000.000			27.283			-3.031
236102.000			27.283			-3.031
236201.000			27.283			-3.031
236300.000			27.282			-3.031
236401.000			27.283			-3.031
236500.000			27.282			-3.031
236600.000			27.281			-3.031
236701.000			27.281			-3.031
236800.000			27.281			-3.031
236900.000			27.281			-3.031
237002.000			27.279			-3.031
237101.000			27.279			-3.031
237201.000			27.278			-3.031
237301.000			27.279			-3.031
237400.000			27.279			-3.031
237500.000			27.278			-3.031
237601.000			27.278			-3.031
237700.000			27.277			-3.031
237800.000			27.278			-3.031
237900.000			27.277			-3.031
238001.000			27.277			-3.031
238102.000			27.276			-3.031
238201.000			27.276			-3.031
238300.000			27.276			-3.031
238401.000			27.276			-3.031
238500.000			27.275			-3.031
238600.000			27.274			-3.030
238701.000			27.274			-3.030
238800.000			27.274			-3.030
238900.000			27.275			-3.031
239002.000			27.273			-3.030
239101.000			27.274			-3.030
239200.000			27.274			-3.030
239301.000			27.275			-3.031
239400.000			27.274			-3.030
239500.000			27.273			-3.030
239601.000			27.272			-3.030
239700.000			27.273			-3.030
239800.000			27.272			-3.030
239902.000			27.271			-3.030
240001.000			27.271			-3.030
240101.000			27.271			-3.030
240201.000			27.271			-3.030
240300.000			27.270			-3.030
240400.000			27.270			-3.030
240501.000			27.271			-3.030
240600.000			27.270			-3.030
240700.000			27.270			-3.030
240802.000			27.269			-3.030
240901.000			27.269			-3.030
241002.000			27.268			-3.030
241100.000			27.269			-3.030
241200.000			27.268			-3.030
241301.000			27.268			-3.030
241400.000			27.267			-3.030
241500.000			27.267			-3.030
241601.000			27.266			-3.030
241700.000			27.266			-3.030
241801.000			27.266			-3.030
241902.000			27.265			-3.029
242001.000			27.265			-3.029
242100.000			27.265			-3.029
242201.000			27.265			-3.029
242300.000			27.266			-3.030
242400.000			27.265			-3.029
242501.000			27.265			-3.029
242600.000			27.265			-3.029
242700.000			27.265			-3.029
242802.000			27.264			-3.029
242901.000			27.264			-3.029
243000.000			27.264			-3.029
243101.000			27.263			-3.029
243200.000			27.262			-3.029
243300.000			27.262			-3.029
243401.000			27.262			-3.029
243500.000			27.261			-3.029
243600.000			27.261			-3.029
243702.000			27.261			-3.029
243801.000			27.261			-3.029
243900.000			27.260			-3.029
244001.000			27.260			-3.029
244100.000			27.260			-3.029
244200.000			27.260			-3.029
244300.000			27.259			-3.029
244400.000			27.259			-3.029
244501.000			27.259			-3.029
244601.000			27.259			-3.029
244701.000			27.259			-3.029
244801.000			27.258			-3.029
244900.000			27.258			-3.029
245000.000			27.257			-3.029
245101.000			27.257			-3.029
245200.000			27.258			-3.029
245300.000			27.257			-3.029
245401.000			27.256			-3.028
245501.000			27.256			-3.028
245601.000			27.256			-3.028
245702.000			27.256			-3.028
245800.000			27.254			-3.028
245900.000			27.255			-3.028
246001.000			27.255			-3.028
246100.000			27.254			-3.028
246200.000			27.254			-3.028
246301.000			27.254			-3.028
246400.000			27.254			-3.028
246501.000			27.253			-3.028
246602.000			27.253			-3.028
246700.000			27.253			-3.028
246800.000			27.253			-3.028
246901.000			27.253			-3.028
247000.000			27.252			-3.028
247100.000			27.251			-3.028
247201.000			27.251			-3.028
247300.000			27.250			-3.028
247402.000			27.250			-3.028
247501.000			27.250			-3.028
247601.000			27.250			-3.028
247701.000			27.249			-3.028
247800.000			27.249			-3.028
247900.000			27.249			-3.028
248001.000			27.249			-3.028
248100.000			27.248			-3.028
248200.000			27.248			-3.028
248301.000			27.247			-3.027
248401.000			27.248			-3.028
248501.000			27.248			-3.028
248602.000			27.248			-3.028
248700.000			27.248			-3.028
248800.000			27.247			-3.027
248901.000			27.246			-3.027
249000.000			27.245			-3.027
249100.000			27.246			-3.027
249201.000			27.246			-3.027
249300.000			27.246			-3.027
249401.000			27.246			-3.027
249502.000			27.246			-3.027
249601.000			27.245			-3.027
249700.000			27.243			-3.027
249801.000			27.243			-3.027
249900.000			27.244			-3.027
250000.000			27.244			-3.027
250101.000			27.243			-3.027
250200.000			27.242			-3.027
250300.000			27.243			-3.027
250402.000			27.242			-3.027
250501.000			27.241			-3.027
250600.000			27.241			-3.027
250700.000			27.241			-3.027
250800.000			27.240			-3.027
250901.000			27.240			-3.027
251000.000			27.240			-3.027
251100.000			27.240			-3.027
251201.000			27.240			-3.027
251301.000			27.239			-3.027
251401.000			27.240			-3.027
251501.000			27.239			-3.027
251600.000			27.239			-3.027
251700.000			27.239			-3.027
251801.000			27.239			-3.027
251900.000			27.238			-3.026
252000.000			27.238			-3.026
252101.000			27.237			-3.026
252201.000			27.238			-3.026
252301.000			27.237			-3.026
252401.000			27.237			-3.026
252500.000			27.236			-3.026
252600.000			27.236			-3.026
252701.000			27.237			-3.026
252800.000			27.237			-3.026
252900.000			27.235			-3.026
253001.000			27.235			-3.026
253101.000			27.236			-3.026
253201.000			27.235			-3.026
253302.000			27.235			-3.026
253400.000			27.234			-3.026
253500.000			27.234			-3.026
253601.000			27.233			-3.026
253700.000			27.234			-3.026
253800.000			27.234			-3.026
253900.000			27.233			-3.026
254000.000			27.233			-3.026
254102.000			27.232			-3.026
254201.000			27.232			-3.026
254300.000			27.232			-3.026
254401.000			27.232			-3.026
254500.000			27.231			-3.026
254600.000			27.231			-3.026
254701.000			27.232			-3.026
254800.000			27.230			-3.026
254900.000			27.230			-3.026
255002.000			27.230			-3.026
255101.000			27.229			-3.025
255201.000			27.229			-3.025
255301.000			27.229			-3.025
255400.000			27.228			-3.025
255500.000			27.228			-3.025
255601.000			27.228			-3.025
255700.000			27.228			-3.025
255800.000			27.227			-3.025
255901.000			27.228			-3.025
256001.000			27.227			-3.025
256101.000			27.226			-3.025
256201.000			27.226			-3.025
256300.000			27.225			-3.025
256400.000			27.226			-3.025
256501.000			27.226			-3.025
256600.000			27.225			-3.025
256700.000			27.225			-3.025
256801.000			27.225			-3.025
256901.000			27.225			-3.025
257002.000			27.225			-3.025
257101.000			27.225			-3.025
257200.000			27.225			-3.025
257301.000			27.225			-3.025
257400.000			27.225			-3.025
257500.000			27.224			-3.025
257601.000			27.223			-3.025
257700.000			27.223			-3.025
257800.000			27.223			-3.025
257902.000			27.223			-3.025
258001.000			27.223			-3.025
258100.000			27.222			-3.025
258201.000			27.222			-3.025
258300.000			27.222			-3.025
258400.000			27.222			-3.025
258501.000			27.223			-3.025
258600.000			27.221			-3.025
258700.000			27.220			-3.024
258802.000			27.220			-3.024
258901.000			27.221			-3.025
259000.000			27.220			-3.024
259101.000			27.220			-3.024
259200.000			27.220			-3.024
259300.000			27.219			-3.024
259401.000			27.218			-3.024
259500.000			27.218			-3.024
259600.000			27.218			-3.024
259702.000			27.218			-3.024
259801.000			27.218			-3.024
259901.000			27.218			-3.024
260001.000			27.217			-3.024
260100.000			27.216			-3.024
260200.000			27.216			-3.024
260300.000			27.217			-3.024
260400.000			27.217			-3.024
260501.000			27.216			-3.024
260600.000			27.215			-3.024
260701.000			27.215			-3.024
260802.000			27.214			-3.024
260900.000			27.214			-3.024
261000.000			27.213			-3.024
261101.000			27.213			-3.024
261200.000			27.213			-3.024
261300.000			27.213			-3.024
261401.000			27.214			-3.024
261500.000			27.214			-3.024
261601.000			27.214			-3.024
261702.000			27.212			-3.024
261800.000			27.212			-3.024
261900.000			27.212			-3.024
262001.000			27.212			-3.024
262100.000			27.211			-3.023
262200.000			27.210			-3.023
262301.000			27.210			-3.023
262400.000			27.211			-3.023
262501.000			27.209			-3.023
262602.000			27.210			-3.023
262700.000			27.210			-3.023
262800.000			27.209			-3.023
262901.000			27.208			-3.023
263000.000			27.208			-3.023
263100.000			27.207			-3.023
263201.000			27.208			-3.023
263300.000			27.208			-3.023
263402.000			27.207			-3.023
263501.000			27.207			-3.023
263600.000			27.207			-3.023
263701.000			27.208			-3.023
263800.000			27.207			-3.023
263900.000			27.206			-3.023
264001.000			27.205			-3.023
264100.000			27.205			-3.023
264200.000			27.206			-3.023
264302.000			27.205			-3.023
264401.000			27.206			-3.023
264500.000			27.206			-3.023
264601.000			27.205			-3.023
264700.000			27.204			-3.023
264800.000			27.203			-3.023
264901.000			27.204			-3.023
265000.000			27.204			-3.023
265100.000			27.204			-3.023
265202.000			27.203			-3.023
265301.000			27.202			-3.022
265401.000			27.201			-3.022
265501.000			27.201			-3.022
265600.000			27.202			-3.022
265700.000			27.201			-3.022
265801.000			27.202			-3.022
265900.000			27.201			-3.022
266000.000			27.201			-3.022
266102.000			27.200			-3.022
266201.000			27.200			-3.022
266301.000			27.200			-3.022
266401.000			27.200			-3.022
266500.000			27.199			-3.022
266600.000			27.199			-3.022
266700.000			27.199			-3.022
266800.000			27.199			-3.022
266901.000			27.199			-3.022
267000.000			27.199			-3.022
267101.000			27.197			-3.022
267202.000			27.197			-3.022
267301.000			27.197			-3.022
267400.000			27.197			-3.022
267501.000			27.197			-3.022
267600.000			27.197			-3.022
267700.000			27.197			-3.022
267801.000			27.197			-3.022
267900.000			27.196			-3.022
268000.000			27.195			-3.022
268102.000			27.196			-3.022
268201.000			27.195			-3.022
268301.000			27.195			-3.022
268401.000			27.196			-3.022
268500.000			27.195			-3.022
268600.000			27.194			-3.022
268701.000			27.194			-3.022
268800.000			27.194			-3.022
268900.000			27.193			-3.021
269001.000			27.193			-3.021
269101.000			27.194			-3.022
269201.000			27.193			-3.021
269301.000			27.192			-3.021
269400.000			27.192			-3.021
269500.000			27.191			-3.021
269601.000			27.192			-3.021
269700.000			27.191			-3.021
269800.000			27.191			-3.021
269900.000			27.190			-3.021
270000.000			27.190			-3.021
270102.000			27.191			-3.021
270201.000			27.190			-3.021
270300.000			27.189			-3.021
270401.000			27.190			-3.021
270500.000			27.189			-3.021
270600.000			27.189			-3.021
270701.000			27.188			-3.021
270800.000			27.188			-3.021
270900.000			27.189			-3.021
271002.000			27.188			-3.021
271101.000			27.188			-3.021
271200.000			27.187			-3.021
271301.000			27.187			-3.021
271400.000			27.186			-3.021
271500.000			27.186			-3.021
271601.000			27.186			-3.021
271700.000			27.186			-3.021
271800.000			27.187			-3.021
271902.000			27.187			-3.021
272001.000			27.186			-3.021
272101.000			27.185			-3.021
272201.000			27.184			-3.020
272300.000			27.183			-3.020
272400.000			27.184			-3.020
272501.000			27.185			-3.021
272600.000			27.184			-3.020
272700.000			27.184			-3.020
272801.000			27.183			-3.020
272901.000			27.182			-3.020
273002.000			27.182			-3.020
273101.000			27.183			-3.020
273200.000			27.183			-3.020
273301.000			27.182			-3.020
273400.000			27.182			-3.020
273500.000			27.181			-3.020
273601.000			27.182			-3.020
273700.000			27.182			-3.020
273800.000			27.180			-3.020
273902.000			27.180			-3.020
274001.000			27.181			-3.020
274100.000			27.180			-3.020
274201.000			27.179			-3.020
274300.000			27.179			-3.020
274400.000			27.178			-3.020
274501.000			27.178			-3.020
274600.000			27.178			-3.020
274700.000			27.177			-3.020
274802.000			27.178			-3.020
274901.000			27.178			-3.020
275001.000			27.177			-3.020
275101.000			27.176			-3.020
275200.000			27.176			-3.020
275300.000			27.176			-3.020
275401.000			27.175			-3.019
275500.000			27.176			-3.020
275600.000			27.176			-3.020
275701.000			27.176			-3.020
275801.000			27.176			-3.020
275901.000			27.175			-3.019
276001.000			27.175			-3.019
276100.000			27.175			-3.019
276200.000			27.174			-3.019
276300.000			27.174			-3.019
276400.000			27.175			-3.019
276501.000			27.174			-3.019
276600.000			27.172			-3.019
276700.000			27.172			-3.019
276802.000			27.173			-3.019
276901.000			27.173			-3.019
277000.000			27.173			-3.019
277101.000			27.173			-3.019
277200.000			27.173			-3.019
277300.000			27.171			-3.019
277401.000			27.170			-3.019
277500.000			27.172			-3.019
277600.000			27.171			-3.019
277702.000			27.171			-3.019
277801.000			27.171			-3.019
277901.000			27.170			-3.019
278001.000			27.170			-3.019
278100.000			27.171			-3.019
278200.000			27.170			-3.019
278301.000			27.170			-3.019
278400.000			27.169			-3.019
278500.000			27.170			-3.019
278601.000			27.168			-3.019
278701.000			27.168			-3.019
278801.000			27.168			-3.019
278902.000			27.168			-3.019
279000.000			27.168			-3.019
279100.000			27.168			-3.019
279201.000			27.167			-3.019
279300.000			27.167			-3.019
279400.000			27.166			-3.018
279500.000			27.167			-3.019
279600.000			27.166			-3.018
279702.000			27.166			-3.018
279801.000			27.166			-3.018
279901.000			27.166			-3.018
280001.000			27.164			-3.018
280100.000			27.166			-3.018
280200.000			27.165			-3.018
280301.000			27.164			-3.018
280400.000			27.164			-3.018
280500.000			27.164			-3.018
280601.000			27.163			-3.018
280701.000			27.163			-3.018
280801.000			27.162			-3.018
280901.000			27.162			-3.018
281000.000			27.163			-3.018
281100.000			27.163			-3.018
281201.000			27.163			-3.018
281300.000			27.162			-3.018
281400.000			27.161			-3.018
281501.000			27.162			-3.018
281601.000			27.161			-3.018
281701.000			27.161			-3.018
281801.000			27.161			-3.018
281900.000			27.161			-3.018
282000.000			27.160			-3.018
282101.000			27.160			-3.018
282200.000			27.159			-3.018
282300.000			27.159			-3.018
282401.000			27.159			-3.018
282501.000			27.158			-3.018
282602.000			27.159			-3.018
282701.000			27.159			-3.018
282800.000			27.158			-3.018
282901.000			27.158			-3.018
283000.000			27.158			-3.018
283100.000			27.159			-3.018
283201.000			27.158			-3.018
283300.000			27.157			-3.017
283401.000			27.157			-3.017
283502.000			27.157			-3.017
283601.000			27.157			-3.017
283700.000			27.156			-3.017
283801.000			27.157			-3.017
283900.000			27.156			-3.017
284000.000			27.155			-3.017
284101.000			27.154			-3.017
284200.000			27.154			-3.017
284300.000			27.154			-3.017
284402.000			27.155			-3.017
284501.000			27.156			-3.017
284600.000			27.155			-3.017
284701.000			27.154			-3.017
284800.000			27.153			-3.017
284900.000			27.152			-3.017
285001.000			27.153			-3.017
285100.000			27.153			-3.017
285200.000			27.150			-3.017
285302.000			27.152			-3.017
285401.000			27.152			-3.017
285501.000			27.151			-3.017
285601.000			27.151			-3.017
285700.000			27.151			-3.017
285800.000			27.151			-3.017
285900.000			27.150			-3.017
286000.000			27.149			-3.017
286101.000			27.150			-3.017
286200.000			27.150			-3.017
286301.000			27.149			-3.017
286402.000			27.148			-3.016
286500.000			27.148			-3.016
286600.000			27.148			-3.016
286701.000			27.148			-3.016
286800.000			27.148			-3.016
286900.000			27.148			-3.016
287001.000			27.149			-3.017
287100.000			27.149			-3.017
287200.000			27.148			-3.016
287302.000			27.148			-3.016
287401.000			27.148			-3.016
287500.000			27.147			-3.016
287601.000			27.146			-3.016
287700.000			27.146			-3.016
287800.000			27.147			-3.016
287901.000			27.145			-3.016
288000.000			27.145			-3.016
288100.000			27.145			-3.016
288202.000			27.144			-3.016
288301.000			27.144			-3.016
288401.000			27.144			-3.016
288501.000			27.144			-3.016
288600.000			27.143			-3.016
288700.000			27.143			-3.016
288801.000			27.144			-3.016
288900.000			27.143			-3.016
289000.000			27.142			-3.016
289100.000			27.142			-3.016
289201.000			27.142			-3.016
289302.000			27.142			-3.016
289400.000			27.142			-3.016
289500.000			27.142			-3.016
289601.000			27.142			-3.016
289700.000			27.142			-3.016
289800.000			27.141			-3.016
289901.000			27.140			-3.016
290000.000			27.140			-3.016
290101.000			27.140			-3.016
290202.000			27.139			-3.015
290301.000			27.140			-3.016
290400.000			27.140			-3.016
290501.000			27.139			-3.015
290600.000			27.138			-3.015
290700.000			27.138			-3.015
290801.000			27.139			-3.015
290900.000			27.138			-3.015
291000.000			27.138			-3.015
291102.000			27.138			-3.015
291201.000			27.138			-3.015
291300.000			27.137			-3.015
291401.000			27.137			-3.015
291500.000			27.137			-3.015
291600.000			27.136			-3.015
291701.000			27.136			-3.015
291800.000			27.137			-3.015
291900.000			27.136			-3.015
292002.000			27.136			-3.015
292101.000			27.136			-3.015
292200.000			27.135			-3.015
292300.000			27.134			-3.015
292400.000			27.134			-3.015
292501.000			27.134			-3.015
292600.000			27.134			-3.015
292700.000			27.133			-3.015
292801.000			27.134			-3.015
292901.000			27.134			-3.015
293001.000			27.133			-3.015
293101.000			27.132			-3.015
293200.000			27.133			-3.015
293300.000			27.133			-3.015
293401.000			27.133			-3.015
293500.000			27.132			-3.015
293600.000			27.131			-3.015
293701.000			27.131			-3.015
293801.000			27.132			-3.015
293901.000			27.131			-3.015
294002.000			27.130			-3.014
294100.000			27.131			-3.015
294200.000			27.131			-3.015
294301.000			27.129			-3.014
294400.000			27.130			-3.014
294500.000			27.130			-3.014
294601.000			27.129			-3.014
294700.000			27.129			-3.014
294801.000			27.128			-3.014
294902.000			27.128			-3.014
295001.000			27.128			-3.014
295100.000			27.128			-3.014
295201.000			27.128			-3.014
295300.000			27.128			-3.014
295400.000			27.127			-3.014
295500.000			27.126			-3.014
295600.000			27.126			-3.014
295701.000			27.126			-3.014
295801.000			27.126			-3.014
295901.000			27.125			-3.014
296001.000			27.126			-3.014
296100.000			27.126			-3.014
296200.000			27.124			-3.014
296301.000			27.123			-3.014
296400.000			27.124			-3.014
296500.000			27.124			-3.014
296601.000			27.124			-3.014
296701.000			27.124			-3.014
296801.000			27.123			-3.014
296902.000			27.124			-3.014
297000.000			27.124			-3.014
297100.000			27.124			-3.014
297201.000			27.123			-3.014
297300.000			27.123			-3.014
297400.000			27.123			-3.014
297501.000			27.123			-3.014
297600.000			27.121			-3.013
297701.000			27.122			-3.014
297802.000			27.121			-3.013
297900.000			27.121			-3.013
298000.000			27.122			-3.014
298101.000			27.122			-3.014
298200.000			27.122			-3.014
298300.000			27.120			-3.013
298401.000			27.120			-3.013
298500.000			27.121			-3.013
298602.000			27.121			-3.013
298701.000			27.119			-3.013
298801.000			27.119			-3.013
298901.000			27.119			-3.013
299000.000			27.120			-3.013
299100.000			27.118			-3.013
299201.000			27.118			-3.013
299300.000			27.119			-3.013
299400.000			27.118			-3.013
299501.000			27.117			-3.013
299601.000			27.117			-3.013
299701.000			27.117			-3.013
299801.000			27.117			-3.013
299900.000			27.117			-3.013
