# Acquired on 29/01/2024 17:39:01 
# SPIDER: Creep_-9mm_HM077x145x38AB-1
# CREEP MEASUREMENT

# time [ms]		force [N]		stiffness [N/mm]
1.000			28.423			-3.158
104.000			28.794			-3.199
205.000			28.834			-3.204
304.000			28.724			-3.192
404.000			28.637			-3.182
505.000			28.572			-3.175
604.000			28.470			-3.163
704.000			28.427			-3.159
805.000			28.387			-3.154
903.000			28.350			-3.150
1004.000			28.317			-3.146
1105.000			28.286			-3.143
1204.000			28.257			-3.140
1304.000			28.204			-3.134
1404.000			28.181			-3.131
1504.000			28.159			-3.129
1604.000			28.137			-3.126
1705.000			28.116			-3.124
1804.000			28.098			-3.122
1904.000			28.080			-3.120
2005.000			28.043			-3.116
2103.000			28.026			-3.114
2204.000			28.009			-3.112
2305.000			27.994			-3.110
2404.000			27.980			-3.109
2505.000			27.965			-3.107
2604.000			27.950			-3.106
2704.000			27.922			-3.102
2804.000			27.908			-3.101
2904.000			27.896			-3.100
3004.000			27.882			-3.098
3105.000			27.870			-3.097
3204.000			27.859			-3.095
3304.000			27.848			-3.094
3405.000			27.826			-3.092
3503.000			27.814			-3.090
3604.000			27.804			-3.089
3705.000			27.794			-3.088
3804.000			27.784			-3.087
3904.000			27.775			-3.086
4004.000			27.766			-3.085
4104.000			27.755			-3.084
4204.000			27.738			-3.082
4305.000			27.729			-3.081
4404.000			27.720			-3.080
4504.000			27.712			-3.079
4605.000			27.704			-3.078
4703.000			27.696			-3.077
4804.000			27.687			-3.076
4905.000			27.671			-3.075
5004.000			27.663			-3.074
5104.000			27.655			-3.073
5205.000			27.647			-3.072
5304.000			27.639			-3.071
5403.000			27.631			-3.070
5505.000			27.625			-3.069
5604.000			27.611			-3.068
5705.000			27.604			-3.067
5804.000			27.597			-3.066
5903.000			27.589			-3.065
6005.000			27.581			-3.065
6104.000			27.575			-3.064
6204.000			27.569			-3.063
6305.000			27.556			-3.062
6404.000			27.550			-3.061
6504.000			27.544			-3.060
6604.000			27.537			-3.060
6704.000			27.530			-3.059
6804.000			27.525			-3.058
6905.000			27.520			-3.058
7004.000			27.514			-3.057
7104.000			27.503			-3.056
7205.000			27.497			-3.055
7303.000			27.491			-3.055
7404.000			27.485			-3.054
7505.000			27.480			-3.053
7604.000			27.474			-3.053
7704.000			27.470			-3.052
7805.000			27.459			-3.051
7904.000			27.453			-3.050
8003.000			27.448			-3.050
8105.000			27.442			-3.049
8204.000			27.438			-3.049
8304.000			27.434			-3.048
8405.000			27.429			-3.048
8503.000			27.418			-3.046
8604.000			27.412			-3.046
8705.000			27.408			-3.045
8804.000			27.404			-3.045
8905.000			27.400			-3.044
9004.000			27.395			-3.044
9104.000			27.390			-3.043
9204.000			27.380			-3.042
9304.000			27.377			-3.042
9404.000			27.373			-3.041
9505.000			27.367			-3.041
9604.000			27.364			-3.040
9704.000			27.359			-3.040
9805.000			27.354			-3.039
9903.000			27.350			-3.039
10004.000			27.342			-3.038
10105.000			27.338			-3.038
10204.000			27.334			-3.037
10304.000			27.330			-3.037
10404.000			27.325			-3.036
10504.000			27.322			-3.036
10604.000			27.319			-3.035
10705.000			27.310			-3.034
10804.000			27.306			-3.034
10904.000			27.302			-3.034
11005.000			27.298			-3.033
11103.000			27.295			-3.033
11204.000			27.291			-3.032
11305.000			27.287			-3.032
11404.000			27.279			-3.031
11504.000			27.276			-3.031
11605.000			27.272			-3.030
11704.000			27.268			-3.030
11803.000			27.265			-3.029
11905.000			27.261			-3.029
12004.000			27.257			-3.029
12105.000			27.251			-3.028
12204.000			27.247			-3.027
12304.000			27.245			-3.027
12405.000			27.241			-3.027
12503.000			27.237			-3.026
12604.000			27.235			-3.026
12705.000			27.231			-3.026
12804.000			27.224			-3.025
12904.000			27.221			-3.025
13004.000			27.218			-3.024
13104.000			27.215			-3.024
13204.000			27.210			-3.023
13305.000			27.207			-3.023
13404.000			27.203			-3.023
13504.000			27.200			-3.022
13605.000			27.193			-3.021
13703.000			27.190			-3.021
13804.000			27.188			-3.021
13905.000			27.184			-3.020
14004.000			27.181			-3.020
14104.000			27.178			-3.020
14205.000			27.175			-3.019
14304.000			27.169			-3.019
14403.000			27.166			-3.018
14505.000			27.163			-3.018
14604.000			27.161			-3.018
14704.000			27.158			-3.018
14805.000			27.155			-3.017
14904.000			27.152			-3.017
15004.000			27.144			-3.016
15103.000			27.142			-3.016
15204.000			27.140			-3.016
15305.000			27.137			-3.015
15404.000			27.134			-3.015
15504.000			27.132			-3.015
15604.000			27.128			-3.014
15704.000			27.123			-3.014
15804.000			27.120			-3.013
15905.000			27.117			-3.013
16004.000			27.115			-3.013
16104.000			27.112			-3.012
16205.000			27.109			-3.012
16303.000			27.107			-3.012
16404.000			27.104			-3.012
16505.000			27.098			-3.011
16604.000			27.095			-3.011
16704.000			27.093			-3.010
16805.000			27.090			-3.010
16904.000			27.087			-3.010
17003.000			27.084			-3.009
17105.000			27.082			-3.009
17204.000			27.078			-3.009
17304.000			27.076			-3.008
17405.000			27.073			-3.008
17504.000			27.070			-3.008
17604.000			27.068			-3.008
17704.000			27.065			-3.007
17804.000			27.063			-3.007
17904.000			27.058			-3.006
18005.000			27.056			-3.006
18104.000			27.053			-3.006
18204.000			27.050			-3.006
18305.000			27.047			-3.005
18403.000			27.045			-3.005
18505.000			27.042			-3.005
18604.000			27.038			-3.004
18704.000			27.035			-3.004
18805.000			27.033			-3.004
18904.000			27.030			-3.003
19004.000			27.028			-3.003
19104.000			27.026			-3.003
19204.000			27.023			-3.003
19304.000			27.020			-3.002
19405.000			27.016			-3.002
19504.000			27.014			-3.002
19603.000			27.011			-3.001
19705.000			27.010			-3.001
19804.000			27.009			-3.001
19904.000			27.005			-3.001
20005.000			27.003			-3.000
20104.000			26.998			-3.000
20204.000			26.996			-3.000
20304.000			26.994			-2.999
20404.000			26.992			-2.999
20504.000			26.991			-2.999
20605.000			26.988			-2.999
20704.000			26.985			-2.998
20804.000			26.982			-2.998
20905.000			26.978			-2.998
21003.000			26.976			-2.997
21104.000			26.975			-2.997
21205.000			26.974			-2.997
21304.000			26.971			-2.997
21404.000			26.968			-2.996
21504.000			26.963			-2.996
21604.000			26.961			-2.996
21704.000			26.959			-2.995
21804.000			26.957			-2.995
21903.000			26.955			-2.995
22005.000			26.954			-2.995
22104.000			26.951			-2.995
22204.000			26.946			-2.994
22305.000			26.945			-2.994
22404.000			26.943			-2.994
22504.000			26.941			-2.993
22604.000			26.940			-2.993
22704.000			26.937			-2.993
22804.000			26.934			-2.993
22905.000			26.932			-2.992
23004.000			26.928			-2.992
23103.000			26.927			-2.992
23205.000			26.924			-2.992
23304.000			26.922			-2.991
23404.000			26.920			-2.991
23505.000			26.919			-2.991
23604.000			26.917			-2.991
23704.000			26.913			-2.990
23804.000			26.911			-2.990
23904.000			26.909			-2.990
24004.000			26.906			-2.990
24105.000			26.905			-2.989
24204.000			26.904			-2.989
24304.000			26.902			-2.989
24405.000			26.898			-2.989
24503.000			26.897			-2.989
24604.000			26.895			-2.988
24705.000			26.893			-2.988
24804.000			26.890			-2.988
24905.000			26.889			-2.988
25004.000			26.887			-2.987
25104.000			26.883			-2.987
25204.000			26.882			-2.987
25304.000			26.880			-2.987
25404.000			26.878			-2.986
25505.000			26.876			-2.986
25604.000			26.874			-2.986
25704.000			26.873			-2.986
25805.000			26.870			-2.986
25904.000			26.867			-2.985
26004.000			26.864			-2.985
26104.000			26.863			-2.985
26204.000			26.861			-2.985
26304.000			26.860			-2.984
26405.000			26.858			-2.984
26504.000			26.855			-2.984
26603.000			26.852			-2.984
26705.000			26.851			-2.983
26804.000			26.849			-2.983
26904.000			26.848			-2.983
27005.000			26.847			-2.983
27104.000			26.845			-2.983
27204.000			26.842			-2.982
27304.000			26.838			-2.982
27404.000			26.837			-2.982
27503.000			26.835			-2.982
27605.000			26.834			-2.982
27704.000			26.832			-2.981
27804.000			26.830			-2.981
27905.000			26.830			-2.981
28004.000			26.827			-2.981
28105.000			26.826			-2.981
28203.000			26.823			-2.980
28304.000			26.822			-2.980
28405.000			26.820			-2.980
28504.000			26.818			-2.980
28604.000			26.816			-2.980
28705.000			26.813			-2.979
28804.000			26.813			-2.979
28903.000			26.810			-2.979
29005.000			26.808			-2.979
29104.000			26.807			-2.979
29204.000			26.805			-2.978
29305.000			26.803			-2.978
29404.000			26.802			-2.978
29504.000			26.799			-2.978
29604.000			26.797			-2.977
29704.000			26.795			-2.977
29804.000			26.794			-2.977
29905.000			26.793			-2.977
30004.000			26.791			-2.977
30104.000			26.788			-2.976
30205.000			26.787			-2.976
30303.000			26.785			-2.976
30404.000			26.784			-2.976
30505.000			26.783			-2.976
30604.000			26.781			-2.976
30704.000			26.779			-2.975
30805.000			26.777			-2.975
30904.000			26.774			-2.975
31003.000			26.773			-2.975
31105.000			26.771			-2.975
31204.000			26.769			-2.974
31305.000			26.768			-2.974
31404.000			26.767			-2.974
31504.000			26.765			-2.974
31605.000			26.762			-2.974
31703.000			26.760			-2.973
31804.000			26.759			-2.973
31905.000			26.757			-2.973
32004.000			26.756			-2.973
32104.000			26.754			-2.973
32204.000			26.753			-2.973
32304.000			26.751			-2.972
32404.000			26.748			-2.972
32505.000			26.747			-2.972
32604.000			26.747			-2.972
32704.000			26.745			-2.972
32805.000			26.743			-2.971
32903.000			26.742			-2.971
33004.000			26.741			-2.971
33105.000			26.737			-2.971
33204.000			26.735			-2.971
33304.000			26.734			-2.970
33405.000			26.735			-2.971
33504.000			26.733			-2.970
33603.000			26.730			-2.970
33705.000			26.728			-2.970
33804.000			26.726			-2.970
33904.000			26.725			-2.969
34005.000			26.725			-2.969
34104.000			26.723			-2.969
34204.000			26.722			-2.969
34303.000			26.720			-2.969
34404.000			26.720			-2.969
34505.000			26.715			-2.968
34604.000			26.714			-2.968
34704.000			26.712			-2.968
34805.000			26.710			-2.968
34904.000			26.710			-2.968
35003.000			26.709			-2.968
35105.000			26.707			-2.967
35204.000			26.704			-2.967
35304.000			26.702			-2.967
35405.000			26.701			-2.967
35504.000			26.700			-2.967
35604.000			26.700			-2.967
35704.000			26.698			-2.966
35804.000			26.696			-2.966
35904.000			26.694			-2.966
36005.000			26.692			-2.966
36104.000			26.691			-2.966
36204.000			26.691			-2.966
36305.000			26.689			-2.965
36403.000			26.688			-2.965
36504.000			26.687			-2.965
36605.000			26.686			-2.965
36704.000			26.682			-2.965
36804.000			26.682			-2.965
36905.000			26.681			-2.965
37004.000			26.680			-2.964
37103.000			26.677			-2.964
37205.000			26.675			-2.964
37304.000			26.673			-2.964
37404.000			26.673			-2.964
37505.000			26.672			-2.964
37604.000			26.669			-2.963
37705.000			26.668			-2.963
37803.000			26.667			-2.963
37904.000			26.667			-2.963
38005.000			26.664			-2.963
38104.000			26.661			-2.962
38204.000			26.660			-2.962
38305.000			26.659			-2.962
38404.000			26.658			-2.962
38503.000			26.658			-2.962
38605.000			26.655			-2.962
38704.000			26.654			-2.962
38804.000			26.653			-2.961
38905.000			26.650			-2.961
39004.000			26.649			-2.961
39104.000			26.647			-2.961
39204.000			26.646			-2.961
39304.000			26.645			-2.961
39404.000			26.644			-2.960
39505.000			26.644			-2.960
39604.000			26.641			-2.960
39704.000			26.639			-2.960
39805.000			26.638			-2.960
39903.000			26.637			-2.960
40004.000			26.636			-2.960
40105.000			26.635			-2.959
40204.000			26.633			-2.959
40304.000			26.632			-2.959
40405.000			26.630			-2.959
40504.000			26.629			-2.959
40603.000			26.627			-2.959
40705.000			26.628			-2.959
40804.000			26.626			-2.958
40905.000			26.624			-2.958
41004.000			26.623			-2.958
41103.000			26.621			-2.958
41205.000			26.620			-2.958
41304.000			26.620			-2.958
41404.000			26.617			-2.957
41505.000			26.616			-2.957
41604.000			26.615			-2.957
41704.000			26.614			-2.957
41804.000			26.611			-2.957
41904.000			26.610			-2.957
42004.000			26.609			-2.957
42105.000			26.608			-2.956
42204.000			26.608			-2.956
42304.000			26.606			-2.956
42405.000			26.606			-2.956
42503.000			26.603			-2.956
42604.000			26.602			-2.956
42705.000			26.601			-2.956
42804.000			26.599			-2.955
42904.000			26.597			-2.955
43005.000			26.598			-2.955
43104.000			26.596			-2.955
43203.000			26.596			-2.955
43305.000			26.594			-2.955
43404.000			26.592			-2.955
43504.000			26.591			-2.955
43605.000			26.590			-2.954
43704.000			26.589			-2.954
43804.000			26.586			-2.954
43903.000			26.585			-2.954
44004.000			26.585			-2.954
44105.000			26.583			-2.954
44204.000			26.582			-2.954
44304.000			26.580			-2.953
44405.000			26.578			-2.953
44504.000			26.577			-2.953
44603.000			26.577			-2.953
44705.000			26.575			-2.953
44804.000			26.574			-2.953
44904.000			26.574			-2.953
45005.000			26.573			-2.953
45104.000			26.572			-2.952
45204.000			26.571			-2.952
45304.000			26.569			-2.952
45404.000			26.566			-2.952
45504.000			26.565			-2.952
45605.000			26.564			-2.952
45704.000			26.563			-2.951
45804.000			26.562			-2.951
45905.000			26.563			-2.951
46003.000			26.561			-2.951
46104.000			26.559			-2.951
46205.000			26.558			-2.951
46304.000			26.557			-2.951
46404.000			26.556			-2.951
46505.000			26.555			-2.951
46604.000			26.553			-2.950
46703.000			26.552			-2.950
46805.000			26.550			-2.950
46904.000			26.549			-2.950
47004.000			26.548			-2.950
47105.000			26.547			-2.950
47204.000			26.546			-2.950
47305.000			26.545			-2.949
47403.000			26.543			-2.949
47504.000			26.542			-2.949
47605.000			26.541			-2.949
47704.000			26.541			-2.949
47804.000			26.540			-2.949
47904.000			26.539			-2.949
48004.000			26.538			-2.949
48103.000			26.537			-2.949
48205.000			26.536			-2.948
48304.000			26.532			-2.948
48404.000			26.533			-2.948
48505.000			26.532			-2.948
48604.000			26.531			-2.948
48704.000			26.529			-2.948
48804.000			26.529			-2.948
48904.000			26.528			-2.948
49004.000			26.524			-2.947
49105.000			26.524			-2.947
49204.000			26.524			-2.947
49304.000			26.522			-2.947
49405.000			26.521			-2.947
49503.000			26.520			-2.947
49604.000			26.518			-2.946
49705.000			26.517			-2.946
49804.000			26.517			-2.946
49904.000			26.516			-2.946
50005.000			26.515			-2.946
50104.000			26.514			-2.946
50203.000			26.512			-2.946
50305.000			26.511			-2.946
50404.000			26.509			-2.945
50505.000			26.508			-2.945
50604.000			26.508			-2.945
50703.000			26.507			-2.945
50805.000			26.505			-2.945
50904.000			26.505			-2.945
51004.000			26.505			-2.945
51105.000			26.503			-2.945
51204.000			26.502			-2.945
51304.000			26.500			-2.944
51404.000			26.499			-2.944
51504.000			26.498			-2.944
51604.000			26.496			-2.944
51705.000			26.497			-2.944
51804.000			26.496			-2.944
51904.000			26.493			-2.944
52005.000			26.492			-2.944
52103.000			26.491			-2.943
52204.000			26.490			-2.943
52305.000			26.489			-2.943
52404.000			26.489			-2.943
52504.000			26.488			-2.943
52605.000			26.488			-2.943
52704.000			26.486			-2.943
52803.000			26.485			-2.943
52905.000			26.483			-2.943
53004.000			26.482			-2.942
53104.000			26.482			-2.942
53205.000			26.482			-2.942
53304.000			26.478			-2.942
53404.000			26.477			-2.942
53503.000			26.476			-2.942
53604.000			26.475			-2.942
53705.000			26.475			-2.942
53804.000			26.475			-2.942
53904.000			26.473			-2.941
54005.000			26.472			-2.941
54104.000			26.471			-2.941
54203.000			26.469			-2.941
54305.000			26.468			-2.941
54404.000			26.467			-2.941
54504.000			26.466			-2.941
54605.000			26.465			-2.941
54704.000			26.465			-2.941
54804.000			26.464			-2.940
54904.000			26.463			-2.940
55004.000			26.461			-2.940
55104.000			26.460			-2.940
55205.000			26.460			-2.940
55304.000			26.460			-2.940
55403.000			26.458			-2.940
55505.000			26.456			-2.940
55604.000			26.455			-2.939
55704.000			26.455			-2.939
55805.000			26.454			-2.939
55904.000			26.453			-2.939
56004.000			26.451			-2.939
56104.000			26.451			-2.939
56204.000			26.450			-2.939
56303.000			26.448			-2.939
56405.000			26.447			-2.939
56504.000			26.447			-2.939
56604.000			26.446			-2.938
56705.000			26.445			-2.938
56803.000			26.444			-2.938
56905.000			26.443			-2.938
57004.000			26.442			-2.938
57104.000			26.442			-2.938
57205.000			26.441			-2.938
57304.000			26.440			-2.938
57404.000			26.438			-2.938
57504.000			26.437			-2.937
57604.000			26.437			-2.937
57703.000			26.435			-2.937
57805.000			26.433			-2.937
57904.000			26.433			-2.937
58004.000			26.432			-2.937
58105.000			26.432			-2.937
58203.000			26.432			-2.937
58304.000			26.430			-2.937
58405.000			26.427			-2.936
58504.000			26.428			-2.936
58604.000			26.427			-2.936
58705.000			26.425			-2.936
58804.000			26.425			-2.936
58903.000			26.424			-2.936
59005.000			26.423			-2.936
59104.000			26.420			-2.936
59204.000			26.421			-2.936
59305.000			26.420			-2.936
59404.000			26.419			-2.935
59504.000			26.418			-2.935
59604.000			26.417			-2.935
59704.000			26.416			-2.935
59804.000			26.415			-2.935
59904.000			26.414			-2.935
60004.000			26.412			-2.935
60105.000			26.410			-2.934
60204.000			26.410			-2.934
60303.000			26.410			-2.934
60405.000			26.409			-2.934
60504.000			26.408			-2.934
60604.000			26.407			-2.934
60705.000			26.406			-2.934
60804.000			26.405			-2.934
60904.000			26.405			-2.934
61004.000			26.405			-2.934
61104.000			26.404			-2.934
61204.000			26.402			-2.934
61305.000			26.400			-2.933
61404.000			26.399			-2.933
61503.000			26.400			-2.933
61605.000			26.399			-2.933
61704.000			26.397			-2.933
61804.000			26.397			-2.933
61905.000			26.396			-2.933
62004.000			26.393			-2.933
62104.000			26.393			-2.933
62204.000			26.392			-2.932
62304.000			26.392			-2.932
62404.000			26.391			-2.932
62505.000			26.390			-2.932
62604.000			26.389			-2.932
62704.000			26.387			-2.932
62805.000			26.386			-2.932
62903.000			26.385			-2.932
63004.000			26.385			-2.932
63105.000			26.385			-2.932
63204.000			26.384			-2.932
63305.000			26.384			-2.932
63404.000			26.381			-2.931
63504.000			26.381			-2.931
63604.000			26.380			-2.931
63704.000			26.379			-2.931
63804.000			26.379			-2.931
63905.000			26.378			-2.931
64004.000			26.377			-2.931
64104.000			26.376			-2.931
64205.000			26.375			-2.931
64303.000			26.374			-2.930
64404.000			26.373			-2.930
64505.000			26.371			-2.930
64604.000			26.370			-2.930
64704.000			26.371			-2.930
64805.000			26.371			-2.930
64904.000			26.369			-2.930
65003.000			26.368			-2.930
65105.000			26.368			-2.930
65204.000			26.367			-2.930
65304.000			26.365			-2.929
65405.000			26.365			-2.929
65504.000			26.365			-2.929
65604.000			26.363			-2.929
65704.000			26.362			-2.929
65804.000			26.361			-2.929
65904.000			26.360			-2.929
66005.000			26.360			-2.929
66104.000			26.359			-2.929
66204.000			26.357			-2.929
66305.000			26.355			-2.928
66403.000			26.355			-2.928
66505.000			26.354			-2.928
66603.000			26.354			-2.928
66704.000			26.354			-2.928
66805.000			26.353			-2.928
66904.000			26.352			-2.928
67004.000			26.352			-2.928
67105.000			26.349			-2.928
67204.000			26.349			-2.928
67303.000			26.349			-2.928
67405.000			26.347			-2.927
67504.000			26.346			-2.927
67604.000			26.346			-2.927
67705.000			26.346			-2.927
67804.000			26.344			-2.927
67904.000			26.343			-2.927
68004.000			26.341			-2.927
68104.000			26.341			-2.927
68204.000			26.341			-2.927
68305.000			26.340			-2.927
68404.000			26.340			-2.927
68504.000			26.337			-2.926
68605.000			26.337			-2.926
68703.000			26.336			-2.926
68804.000			26.334			-2.926
68905.000			26.333			-2.926
69004.000			26.334			-2.926
69104.000			26.333			-2.926
69205.000			26.333			-2.926
69304.000			26.332			-2.926
69403.000			26.331			-2.926
69505.000			26.330			-2.926
69604.000			26.329			-2.925
69705.000			26.328			-2.925
69804.000			26.327			-2.925
69904.000			26.326			-2.925
70005.000			26.326			-2.925
70103.000			26.326			-2.925
70204.000			26.325			-2.925
70305.000			26.324			-2.925
70404.000			26.323			-2.925
70504.000			26.322			-2.925
70605.000			26.321			-2.925
70704.000			26.319			-2.924
70803.000			26.318			-2.924
70905.000			26.318			-2.924
71004.000			26.318			-2.924
71104.000			26.316			-2.924
71205.000			26.315			-2.924
71303.000			26.315			-2.924
71404.000			26.314			-2.924
71505.000			26.314			-2.924
71604.000			26.313			-2.924
71704.000			26.312			-2.924
71805.000			26.312			-2.924
71904.000			26.311			-2.923
72003.000			26.310			-2.923
72105.000			26.309			-2.923
72204.000			26.308			-2.923
72304.000			26.307			-2.923
72405.000			26.306			-2.923
72504.000			26.305			-2.923
72604.000			26.306			-2.923
72703.000			26.306			-2.923
72804.000			26.304			-2.923
72905.000			26.304			-2.923
73004.000			26.302			-2.922
73104.000			26.301			-2.922
73205.000			26.300			-2.922
73304.000			26.300			-2.922
73403.000			26.299			-2.922
73505.000			26.299			-2.922
73604.000			26.297			-2.922
73704.000			26.296			-2.922
73805.000			26.296			-2.922
73904.000			26.294			-2.922
74004.000			26.294			-2.922
74104.000			26.294			-2.922
74204.000			26.293			-2.921
74304.000			26.292			-2.921
74405.000			26.291			-2.921
74504.000			26.290			-2.921
74604.000			26.290			-2.921
74705.000			26.289			-2.921
74803.000			26.288			-2.921
74904.000			26.288			-2.921
75005.000			26.286			-2.921
75104.000			26.286			-2.921
75204.000			26.284			-2.920
75305.000			26.284			-2.920
75404.000			26.284			-2.920
75503.000			26.283			-2.920
75605.000			26.282			-2.920
75704.000			26.280			-2.920
75804.000			26.280			-2.920
75905.000			26.278			-2.920
76004.000			26.279			-2.920
76105.000			26.278			-2.920
76203.000			26.278			-2.920
76304.000			26.277			-2.920
76405.000			26.276			-2.920
76504.000			26.275			-2.919
76604.000			26.274			-2.919
76705.000			26.273			-2.919
76804.000			26.273			-2.919
76903.000			26.273			-2.919
77005.000			26.272			-2.919
77104.000			26.272			-2.919
77204.000			26.269			-2.919
77305.000			26.268			-2.919
77404.000			26.268			-2.919
77504.000			26.267			-2.919
77604.000			26.266			-2.918
77704.000			26.267			-2.919
77804.000			26.266			-2.918
77905.000			26.264			-2.918
78004.000			26.264			-2.918
78104.000			26.264			-2.918
78205.000			26.263			-2.918
78303.000			26.262			-2.918
78404.000			26.260			-2.918
78505.000			26.259			-2.918
78604.000			26.259			-2.918
78704.000			26.258			-2.918
78805.000			26.257			-2.917
78904.000			26.258			-2.918
79003.000			26.257			-2.917
79105.000			26.256			-2.917
79204.000			26.255			-2.917
79305.000			26.254			-2.917
79404.000			26.253			-2.917
79504.000			26.252			-2.917
79605.000			26.252			-2.917
79703.000			26.252			-2.917
79804.000			26.252			-2.917
79905.000			26.251			-2.917
80004.000			26.250			-2.917
80104.000			26.248			-2.916
80205.000			26.248			-2.916
80304.000			26.247			-2.916
80403.000			26.246			-2.916
80505.000			26.246			-2.916
80604.000			26.245			-2.916
80704.000			26.245			-2.916
80805.000			26.244			-2.916
80904.000			26.243			-2.916
81004.000			26.242			-2.916
81104.000			26.241			-2.916
81204.000			26.241			-2.916
81304.000			26.241			-2.916
81405.000			26.239			-2.915
81504.000			26.238			-2.915
81604.000			26.238			-2.915
81705.000			26.237			-2.915
81803.000			26.236			-2.915
81904.000			26.236			-2.915
82005.000			26.236			-2.915
82104.000			26.236			-2.915
82204.000			26.234			-2.915
82304.000			26.234			-2.915
82404.000			26.232			-2.915
82504.000			26.231			-2.915
82604.000			26.231			-2.915
82704.000			26.231			-2.915
82805.000			26.230			-2.914
82904.000			26.229			-2.914
83003.000			26.228			-2.914
83105.000			26.229			-2.914
83204.000			26.229			-2.914
83304.000			26.228			-2.914
83405.000			26.227			-2.914
83504.000			26.226			-2.914
83604.000			26.225			-2.914
83704.000			26.224			-2.914
83804.000			26.223			-2.914
83903.000			26.222			-2.914
84005.000			26.220			-2.913
84104.000			26.221			-2.913
84204.000			26.221			-2.913
84305.000			26.220			-2.913
84403.000			26.219			-2.913
84504.000			26.218			-2.913
84605.000			26.218			-2.913
84704.000			26.217			-2.913
84804.000			26.216			-2.913
84905.000			26.215			-2.913
85004.000			26.215			-2.913
85103.000			26.214			-2.913
85205.000			26.213			-2.913
85304.000			26.213			-2.913
85404.000			26.212			-2.912
85505.000			26.211			-2.912
85604.000			26.210			-2.912
85705.000			26.210			-2.912
85803.000			26.209			-2.912
85904.000			26.210			-2.912
86005.000			26.209			-2.912
86104.000			26.207			-2.912
86204.000			26.207			-2.912
86305.000			26.206			-2.912
86404.000			26.206			-2.912
86503.000			26.205			-2.912
86605.000			26.205			-2.912
86704.000			26.203			-2.911
86804.000			26.202			-2.911
86905.000			26.201			-2.911
87004.000			26.201			-2.911
87104.000			26.201			-2.911
87204.000			26.200			-2.911
87304.000			26.200			-2.911
87403.000			26.200			-2.911
87505.000			26.199			-2.911
87604.000			26.198			-2.911
87704.000			26.197			-2.911
87805.000			26.197			-2.911
87904.000			26.196			-2.911
88004.000			26.195			-2.911
88104.000			26.196			-2.911
88204.000			26.194			-2.910
88304.000			26.193			-2.910
88405.000			26.192			-2.910
88504.000			26.192			-2.910
88604.000			26.192			-2.910
88705.000			26.191			-2.910
88803.000			26.190			-2.910
88905.000			26.188			-2.910
89004.000			26.188			-2.910
89104.000			26.186			-2.910
89205.000			26.186			-2.910
89304.000			26.186			-2.910
89404.000			26.185			-2.909
89504.000			26.184			-2.909
89604.000			26.183			-2.909
89704.000			26.183			-2.909
89805.000			26.182			-2.909
89904.000			26.183			-2.909
90004.000			26.182			-2.909
90105.000			26.181			-2.909
90203.000			26.181			-2.909
90304.000			26.180			-2.909
90405.000			26.180			-2.909
90504.000			26.178			-2.909
90604.000			26.177			-2.909
90705.000			26.177			-2.909
90804.000			26.177			-2.909
90903.000			26.176			-2.908
91005.000			26.175			-2.908
91104.000			26.174			-2.908
91204.000			26.174			-2.908
91305.000			26.174			-2.908
91404.000			26.174			-2.908
91504.000			26.173			-2.908
91604.000			26.172			-2.908
91704.000			26.171			-2.908
91804.000			26.171			-2.908
91904.000			26.170			-2.908
92004.000			26.170			-2.908
92105.000			26.170			-2.908
92204.000			26.169			-2.908
92303.000			26.169			-2.908
92405.000			26.169			-2.908
92504.000			26.167			-2.907
92604.000			26.166			-2.907
92705.000			26.165			-2.907
92804.000			26.164			-2.907
92904.000			26.164			-2.907
93004.000			26.164			-2.907
93104.000			26.163			-2.907
93204.000			26.162			-2.907
93305.000			26.161			-2.907
93404.000			26.161			-2.907
93504.000			26.160			-2.907
93605.000			26.160			-2.907
93703.000			26.160			-2.907
93804.000			26.158			-2.906
93905.000			26.158			-2.906
94004.000			26.157			-2.906
94104.000			26.157			-2.906
94205.000			26.157			-2.906
94304.000			26.156			-2.906
94403.000			26.156			-2.906
94505.000			26.153			-2.906
94604.000			26.154			-2.906
94704.000			26.154			-2.906
94805.000			26.154			-2.906
94904.000			26.153			-2.906
95004.000			26.152			-2.906
95103.000			26.151			-2.906
95204.000			26.151			-2.906
95305.000			26.150			-2.906
95404.000			26.150			-2.906
95504.000			26.149			-2.905
95605.000			26.148			-2.905
95704.000			26.147			-2.905
95803.000			26.146			-2.905
95905.000			26.146			-2.905
96004.000			26.146			-2.905
96104.000			26.144			-2.905
96205.000			26.144			-2.905
96304.000			26.144			-2.905
96404.000			26.143			-2.905
96504.000			26.143			-2.905
96604.000			26.142			-2.905
96704.000			26.140			-2.904
96805.000			26.141			-2.905
96904.000			26.141			-2.905
97004.000			26.141			-2.905
97105.000			26.140			-2.904
97203.000			26.139			-2.904
97304.000			26.139			-2.904
97405.000			26.137			-2.904
97504.000			26.135			-2.904
97604.000			26.136			-2.904
97705.000			26.136			-2.904
97804.000			26.135			-2.904
97903.000			26.134			-2.904
98005.000			26.134			-2.904
98104.000			26.134			-2.904
98204.000			26.133			-2.904
98305.000			26.132			-2.904
98404.000			26.132			-2.904
98505.000			26.131			-2.903
98603.000			26.131			-2.903
98704.000			26.130			-2.903
98805.000			26.129			-2.903
98904.000			26.129			-2.903
99004.000			26.128			-2.903
99105.000			26.127			-2.903
99204.000			26.127			-2.903
99303.000			26.127			-2.903
99405.000			26.126			-2.903
99504.000			26.124			-2.903
99604.000			26.124			-2.903
99705.000			26.123			-2.903
99804.000			26.122			-2.902
99904.000			26.121			-2.902
100004.000			26.121			-2.902
100104.000			26.121			-2.902
100204.000			26.120			-2.902
100305.000			26.120			-2.902
100404.000			26.120			-2.902
100504.000			26.119			-2.902
100605.000			26.119			-2.902
100703.000			26.118			-2.902
100804.000			26.118			-2.902
100905.000			26.117			-2.902
101004.000			26.115			-2.902
101104.000			26.116			-2.902
101205.000			26.115			-2.902
101304.000			26.115			-2.902
101403.000			26.115			-2.902
101505.000			26.114			-2.902
101604.000			26.114			-2.902
101705.000			26.113			-2.901
101804.000			26.110			-2.901
101904.000			26.111			-2.901
102005.000			26.111			-2.901
102103.000			26.111			-2.901
102204.000			26.110			-2.901
102305.000			26.109			-2.901
102404.000			26.109			-2.901
102504.000			26.107			-2.901
102605.000			26.107			-2.901
102704.000			26.107			-2.901
102803.000			26.106			-2.901
102905.000			26.106			-2.901
103004.000			26.105			-2.901
103104.000			26.104			-2.900
103205.000			26.104			-2.900
103304.000			26.102			-2.900
103404.000			26.102			-2.900
103504.000			26.101			-2.900
103604.000			26.102			-2.900
103704.000			26.102			-2.900
103805.000			26.101			-2.900
103904.000			26.100			-2.900
104004.000			26.099			-2.900
104105.000			26.100			-2.900
104203.000			26.098			-2.900
104304.000			26.097			-2.900
104405.000			26.097			-2.900
104504.000			26.096			-2.900
104604.000			26.096			-2.900
104704.000			26.095			-2.899
104804.000			26.095			-2.899
104904.000			26.095			-2.899
105004.000			26.095			-2.899
105104.000			26.094			-2.899
105205.000			26.093			-2.899
105304.000			26.093			-2.899
105404.000			26.091			-2.899
105505.000			26.092			-2.899
105603.000			26.091			-2.899
105704.000			26.089			-2.899
105805.000			26.089			-2.899
105904.000			26.089			-2.899
106004.000			26.088			-2.899
106105.000			26.088			-2.899
106204.000			26.086			-2.898
106303.000			26.087			-2.899
106405.000			26.087			-2.899
106504.000			26.086			-2.898
106604.000			26.086			-2.898
106705.000			26.085			-2.898
106804.000			26.083			-2.898
106904.000			26.083			-2.898
107005.000			26.083			-2.898
107104.000			26.083			-2.898
107203.000			26.083			-2.898
107305.000			26.083			-2.898
107404.000			26.082			-2.898
107504.000			26.080			-2.898
107605.000			26.078			-2.898
107704.000			26.078			-2.898
107804.000			26.079			-2.898
107903.000			26.079			-2.898
108004.000			26.078			-2.898
108105.000			26.078			-2.898
108204.000			26.077			-2.897
108304.000			26.075			-2.897
108405.000			26.075			-2.897
108504.000			26.075			-2.897
108603.000			26.074			-2.897
108705.000			26.074			-2.897
108804.000			26.074			-2.897
108904.000			26.074			-2.897
109005.000			26.072			-2.897
109104.000			26.071			-2.897
109204.000			26.070			-2.897
109304.000			26.070			-2.897
109404.000			26.069			-2.897
109503.000			26.069			-2.897
109605.000			26.069			-2.897
109704.000			26.069			-2.897
109804.000			26.068			-2.896
109905.000			26.066			-2.896
110004.000			26.066			-2.896
110104.000			26.066			-2.896
110204.000			26.065			-2.896
110304.000			26.066			-2.896
110404.000			26.065			-2.896
110505.000			26.065			-2.896
110604.000			26.065			-2.896
110704.000			26.064			-2.896
110805.000			26.063			-2.896
110903.000			26.062			-2.896
111004.000			26.061			-2.896
111105.000			26.060			-2.896
111204.000			26.060			-2.896
111305.000			26.060			-2.896
111404.000			26.059			-2.895
111504.000			26.059			-2.895
111604.000			26.059			-2.895
111704.000			26.058			-2.895
111804.000			26.057			-2.895
111905.000			26.057			-2.895
112004.000			26.056			-2.895
112104.000			26.056			-2.895
112205.000			26.056			-2.895
112303.000			26.055			-2.895
112404.000			26.055			-2.895
112505.000			26.054			-2.895
112604.000			26.053			-2.895
112704.000			26.052			-2.895
112805.000			26.051			-2.895
112904.000			26.050			-2.894
113003.000			26.051			-2.895
113105.000			26.051			-2.895
113204.000			26.051			-2.895
113304.000			26.048			-2.894
113405.000			26.048			-2.894
113504.000			26.048			-2.894
113604.000			26.048			-2.894
113704.000			26.047			-2.894
113804.000			26.048			-2.894
113904.000			26.047			-2.894
114005.000			26.047			-2.894
114104.000			26.046			-2.894
114204.000			26.045			-2.894
114305.000			26.044			-2.894
114403.000			26.043			-2.894
114505.000			26.043			-2.894
114604.000			26.044			-2.894
114704.000			26.043			-2.894
114805.000			26.042			-2.894
114904.000			26.042			-2.894
115004.000			26.041			-2.893
115104.000			26.040			-2.893
115204.000			26.041			-2.893
115304.000			26.041			-2.893
115405.000			26.040			-2.893
115504.000			26.039			-2.893
115604.000			26.038			-2.893
115705.000			26.038			-2.893
115803.000			26.037			-2.893
115904.000			26.036			-2.893
116005.000			26.037			-2.893
116104.000			26.036			-2.893
116204.000			26.034			-2.893
116305.000			26.035			-2.893
116404.000			26.035			-2.893
116503.000			26.034			-2.893
116605.000			26.033			-2.893
116704.000			26.033			-2.893
116804.000			26.033			-2.893
116905.000			26.030			-2.892
117004.000			26.030			-2.892
117104.000			26.029			-2.892
117204.000			26.028			-2.892
117304.000			26.028			-2.892
117404.000			26.028			-2.892
117504.000			26.028			-2.892
117604.000			26.029			-2.892
117705.000			26.028			-2.892
117804.000			26.028			-2.892
117903.000			26.027			-2.892
118005.000			26.025			-2.892
118103.000			26.025			-2.892
118204.000			26.025			-2.892
118305.000			26.023			-2.891
118404.000			26.023			-2.891
118504.000			26.023			-2.891
118605.000			26.022			-2.891
118704.000			26.021			-2.891
118803.000			26.022			-2.891
118905.000			26.021			-2.891
119004.000			26.020			-2.891
119104.000			26.020			-2.891
119205.000			26.019			-2.891
119304.000			26.019			-2.891
119404.000			26.018			-2.891
119504.000			26.018			-2.891
119604.000			26.018			-2.891
119704.000			26.017			-2.891
119805.000			26.017			-2.891
119904.000			26.016			-2.891
120004.000			26.016			-2.891
120105.000			26.016			-2.891
120203.000			26.014			-2.890
120304.000			26.012			-2.890
120405.000			26.012			-2.890
120504.000			26.011			-2.890
120604.000			26.009			-2.890
120704.000			26.009			-2.890
120804.000			26.010			-2.890
120904.000			26.008			-2.890
121004.000			26.008			-2.890
121104.000			26.008			-2.890
121205.000			26.006			-2.890
121304.000			26.005			-2.889
121404.000			26.005			-2.889
121505.000			26.005			-2.889
121603.000			26.005			-2.889
121704.000			26.005			-2.889
121805.000			26.004			-2.889
121904.000			26.004			-2.889
122004.000			26.003			-2.889
122105.000			26.003			-2.889
122204.000			26.003			-2.889
122303.000			26.003			-2.889
122405.000			26.002			-2.889
122504.000			26.000			-2.889
122604.000			25.999			-2.889
122705.000			26.001			-2.889
122803.000			26.000			-2.889
122904.000			25.999			-2.889
123004.000			26.000			-2.889
123104.000			25.999			-2.889
123204.000			25.998			-2.889
123305.000			25.998			-2.889
123404.000			25.996			-2.888
123504.000			25.996			-2.888
123605.000			25.996			-2.888
123703.000			25.995			-2.888
123804.000			25.995			-2.888
123905.000			25.995			-2.888
124004.000			25.995			-2.888
124105.000			25.993			-2.888
124204.000			25.992			-2.888
124304.000			25.991			-2.888
124405.000			25.991			-2.888
124504.000			25.991			-2.888
124603.000			25.991			-2.888
124705.000			25.990			-2.888
124804.000			25.990			-2.888
124904.000			25.989			-2.888
125005.000			25.988			-2.888
125104.000			25.988			-2.888
125204.000			25.988			-2.888
125304.000			25.989			-2.888
125404.000			25.989			-2.888
125504.000			25.987			-2.887
125605.000			25.985			-2.887
125704.000			25.985			-2.887
125804.000			25.986			-2.887
125905.000			25.984			-2.887
126004.000			25.984			-2.887
126104.000			25.984			-2.887
126204.000			25.984			-2.887
126304.000			25.984			-2.887
126404.000			25.983			-2.887
126505.000			25.982			-2.887
126604.000			25.981			-2.887
126704.000			25.980			-2.887
126805.000			25.980			-2.887
126903.000			25.979			-2.887
127004.000			25.980			-2.887
127105.000			25.979			-2.887
127204.000			25.978			-2.886
127305.000			25.977			-2.886
127404.000			25.978			-2.886
127504.000			25.977			-2.886
127605.000			25.976			-2.886
127704.000			25.975			-2.886
127803.000			25.975			-2.886
127905.000			25.975			-2.886
128003.000			25.975			-2.886
128104.000			25.974			-2.886
128205.000			25.974			-2.886
128304.000			25.974			-2.886
128404.000			25.973			-2.886
128505.000			25.972			-2.886
128604.000			25.972			-2.886
128703.000			25.972			-2.886
128805.000			25.972			-2.886
128904.000			25.971			-2.886
129004.000			25.971			-2.886
129105.000			25.971			-2.886
129204.000			25.967			-2.885
129304.000			25.967			-2.885
129404.000			25.967			-2.885
129504.000			25.968			-2.885
129603.000			25.968			-2.885
129705.000			25.967			-2.885
129804.000			25.968			-2.885
129904.000			25.965			-2.885
130005.000			25.965			-2.885
130104.000			25.965			-2.885
130204.000			25.964			-2.885
130303.000			25.963			-2.885
130404.000			25.963			-2.885
130505.000			25.964			-2.885
130604.000			25.963			-2.885
130704.000			25.963			-2.885
130805.000			25.962			-2.885
130904.000			25.962			-2.885
131004.000			25.961			-2.885
131105.000			25.960			-2.884
131203.000			25.960			-2.884
131304.000			25.960			-2.884
131405.000			25.959			-2.884
131504.000			25.958			-2.884
131604.000			25.959			-2.884
131705.000			25.959			-2.884
131804.000			25.958			-2.884
131903.000			25.957			-2.884
132005.000			25.956			-2.884
132103.000			25.957			-2.884
132204.000			25.956			-2.884
132305.000			25.955			-2.884
132404.000			25.955			-2.884
132504.000			25.955			-2.884
132605.000			25.954			-2.884
132704.000			25.954			-2.884
132803.000			25.952			-2.884
132905.000			25.952			-2.884
133003.000			25.951			-2.883
133104.000			25.951			-2.883
133205.000			25.952			-2.884
133304.000			25.952			-2.884
133404.000			25.950			-2.883
133504.000			25.950			-2.883
133604.000			25.950			-2.883
133704.000			25.950			-2.883
133804.000			25.949			-2.883
133903.000			25.948			-2.883
134005.000			25.948			-2.883
134104.000			25.947			-2.883
134204.000			25.946			-2.883
134305.000			25.946			-2.883
134404.000			25.945			-2.883
134504.000			25.945			-2.883
134604.000			25.945			-2.883
134704.000			25.945			-2.883
134803.000			25.943			-2.883
134905.000			25.943			-2.883
135004.000			25.944			-2.883
135104.000			25.943			-2.883
135205.000			25.943			-2.883
135304.000			25.942			-2.882
135404.000			25.941			-2.882
135504.000			25.940			-2.882
135604.000			25.940			-2.882
135703.000			25.941			-2.882
135805.000			25.939			-2.882
135904.000			25.938			-2.882
136004.000			25.939			-2.882
136105.000			25.939			-2.882
136204.000			25.939			-2.882
136304.000			25.938			-2.882
136405.000			25.937			-2.882
136504.000			25.936			-2.882
136603.000			25.935			-2.882
136705.000			25.935			-2.882
136804.000			25.934			-2.882
136905.000			25.935			-2.882
137004.000			25.935			-2.882
137104.000			25.932			-2.881
137205.000			25.933			-2.881
137304.000			25.933			-2.881
137404.000			25.932			-2.881
137504.000			25.933			-2.881
137604.000			25.932			-2.881
137704.000			25.932			-2.881
137805.000			25.931			-2.881
137904.000			25.930			-2.881
138004.000			25.930			-2.881
138105.000			25.929			-2.881
138204.000			25.930			-2.881
138304.000			25.928			-2.881
138404.000			25.928			-2.881
138504.000			25.929			-2.881
138604.000			25.927			-2.881
138705.000			25.927			-2.881
138804.000			25.927			-2.881
138904.000			25.926			-2.881
139005.000			25.926			-2.881
139104.000			25.927			-2.881
139204.000			25.926			-2.881
139304.000			25.924			-2.880
139404.000			25.924			-2.880
139503.000			25.925			-2.881
139605.000			25.925			-2.881
139704.000			25.923			-2.880
139804.000			25.923			-2.880
139905.000			25.923			-2.880
140004.000			25.921			-2.880
140105.000			25.921			-2.880
140203.000			25.921			-2.880
140304.000			25.920			-2.880
140404.000			25.921			-2.880
140504.000			25.920			-2.880
140604.000			25.919			-2.880
140705.000			25.919			-2.880
140804.000			25.918			-2.880
140904.000			25.917			-2.880
141005.000			25.918			-2.880
141103.000			25.918			-2.880
141204.000			25.917			-2.880
141305.000			25.917			-2.880
141404.000			25.917			-2.880
141504.000			25.915			-2.879
141605.000			25.915			-2.879
141704.000			25.915			-2.879
141804.000			25.914			-2.879
141905.000			25.914			-2.879
142003.000			25.914			-2.879
142104.000			25.913			-2.879
142205.000			25.914			-2.879
142304.000			25.913			-2.879
142404.000			25.912			-2.879
142505.000			25.911			-2.879
142604.000			25.911			-2.879
142704.000			25.910			-2.879
142805.000			25.909			-2.879
142903.000			25.910			-2.879
143004.000			25.910			-2.879
143105.000			25.909			-2.879
143204.000			25.908			-2.879
143305.000			25.908			-2.879
143404.000			25.908			-2.879
143504.000			25.908			-2.879
143605.000			25.906			-2.878
143704.000			25.906			-2.878
143803.000			25.906			-2.878
143905.000			25.905			-2.878
144004.000			25.906			-2.878
144104.000			25.904			-2.878
144205.000			25.903			-2.878
144304.000			25.904			-2.878
144404.000			25.902			-2.878
144505.000			25.903			-2.878
144604.000			25.902			-2.878
144703.000			25.902			-2.878
144805.000			25.901			-2.878
144904.000			25.901			-2.878
145004.000			25.901			-2.878
145105.000			25.900			-2.878
145204.000			25.899			-2.878
145304.000			25.900			-2.878
145405.000			25.900			-2.878
145504.000			25.899			-2.878
145603.000			25.899			-2.878
145705.000			25.899			-2.878
145804.000			25.898			-2.878
145904.000			25.898			-2.878
146005.000			25.897			-2.877
146104.000			25.896			-2.877
146204.000			25.896			-2.877
146304.000			25.896			-2.877
146404.000			25.894			-2.877
146504.000			25.894			-2.877
146604.000			25.895			-2.877
146703.000			25.894			-2.877
146805.000			25.894			-2.877
146904.000			25.893			-2.877
147004.000			25.892			-2.877
147105.000			25.891			-2.877
147204.000			25.893			-2.877
147304.000			25.892			-2.877
147405.000			25.892			-2.877
147504.000			25.891			-2.877
147603.000			25.889			-2.877
147705.000			25.889			-2.877
147804.000			25.890			-2.877
147904.000			25.888			-2.876
148005.000			25.887			-2.876
148104.000			25.887			-2.876
148204.000			25.888			-2.876
148305.000			25.888			-2.876
148404.000			25.886			-2.876
148503.000			25.887			-2.876
148605.000			25.886			-2.876
148703.000			25.886			-2.876
148804.000			25.886			-2.876
148905.000			25.885			-2.876
149004.000			25.885			-2.876
149104.000			25.885			-2.876
149205.000			25.885			-2.876
149304.000			25.884			-2.876
149404.000			25.883			-2.876
149505.000			25.882			-2.876
149603.000			25.882			-2.876
149705.000			25.882			-2.876
149804.000			25.882			-2.876
149904.000			25.882			-2.876
150005.000			25.881			-2.876
150104.000			25.880			-2.876
150204.000			25.881			-2.876
150305.000			25.880			-2.876
150404.000			25.879			-2.875
150503.000			25.878			-2.875
150605.000			25.877			-2.875
150704.000			25.877			-2.875
150804.000			25.876			-2.875
150905.000			25.876			-2.875
151004.000			25.876			-2.875
151104.000			25.876			-2.875
151205.000			25.876			-2.875
151304.000			25.876			-2.875
151403.000			25.875			-2.875
151505.000			25.875			-2.875
151604.000			25.873			-2.875
151704.000			25.873			-2.875
151805.000			25.873			-2.875
151904.000			25.873			-2.875
152004.000			25.873			-2.875
152105.000			25.872			-2.875
152204.000			25.871			-2.875
152303.000			25.870			-2.874
152405.000			25.872			-2.875
152504.000			25.871			-2.875
152604.000			25.870			-2.874
152705.000			25.870			-2.874
152804.000			25.870			-2.874
152905.000			25.869			-2.874
153004.000			25.868			-2.874
153104.000			25.868			-2.874
153204.000			25.867			-2.874
153304.000			25.867			-2.874
153403.000			25.867			-2.874
153505.000			25.867			-2.874
153604.000			25.866			-2.874
153704.000			25.865			-2.874
153805.000			25.865			-2.874
153904.000			25.865			-2.874
154004.000			25.866			-2.874
154104.000			25.864			-2.874
154204.000			25.863			-2.874
154303.000			25.864			-2.874
154405.000			25.864			-2.874
154504.000			25.863			-2.874
154604.000			25.862			-2.874
154705.000			25.861			-2.873
154804.000			25.861			-2.873
154904.000			25.862			-2.874
155004.000			25.862			-2.874
155104.000			25.860			-2.873
155203.000			25.860			-2.873
155305.000			25.861			-2.873
155404.000			25.860			-2.873
155504.000			25.858			-2.873
155605.000			25.859			-2.873
155704.000			25.858			-2.873
155804.000			25.857			-2.873
155904.000			25.858			-2.873
156004.000			25.858			-2.873
156104.000			25.858			-2.873
156204.000			25.856			-2.873
156304.000			25.856			-2.873
156405.000			25.855			-2.873
156504.000			25.856			-2.873
156604.000			25.855			-2.873
156705.000			25.855			-2.873
156804.000			25.854			-2.873
156904.000			25.854			-2.873
157004.000			25.853			-2.873
157104.000			25.854			-2.873
157204.000			25.854			-2.873
157305.000			25.853			-2.873
157404.000			25.852			-2.872
157504.000			25.852			-2.872
157605.000			25.853			-2.873
157704.000			25.852			-2.872
157804.000			25.852			-2.872
157904.000			25.851			-2.872
158004.000			25.850			-2.872
158104.000			25.849			-2.872
158205.000			25.849			-2.872
158304.000			25.849			-2.872
158404.000			25.848			-2.872
158505.000			25.848			-2.872
158604.000			25.848			-2.872
158704.000			25.848			-2.872
158804.000			25.848			-2.872
158904.000			25.846			-2.872
159003.000			25.846			-2.872
159105.000			25.845			-2.872
159204.000			25.845			-2.872
159305.000			25.844			-2.872
159404.000			25.844			-2.872
159504.000			25.845			-2.872
159605.000			25.845			-2.872
159704.000			25.845			-2.872
159804.000			25.844			-2.872
159904.000			25.843			-2.871
160004.000			25.842			-2.871
160104.000			25.843			-2.871
160205.000			25.841			-2.871
160304.000			25.841			-2.871
160404.000			25.841			-2.871
160505.000			25.842			-2.871
160604.000			25.840			-2.871
160704.000			25.839			-2.871
160804.000			25.839			-2.871
160904.000			25.839			-2.871
161004.000			25.839			-2.871
161105.000			25.838			-2.871
161204.000			25.838			-2.871
161304.000			25.837			-2.871
161405.000			25.837			-2.871
161504.000			25.837			-2.871
161604.000			25.836			-2.871
161704.000			25.836			-2.871
161804.000			25.835			-2.871
161904.000			25.835			-2.871
162005.000			25.835			-2.871
162104.000			25.835			-2.871
162204.000			25.835			-2.871
162305.000			25.834			-2.870
162404.000			25.834			-2.870
162505.000			25.834			-2.870
162603.000			25.833			-2.870
162704.000			25.832			-2.870
162805.000			25.831			-2.870
162904.000			25.831			-2.870
163004.000			25.831			-2.870
163105.000			25.830			-2.870
163204.000			25.830			-2.870
163304.000			25.831			-2.870
163405.000			25.829			-2.870
163503.000			25.829			-2.870
163604.000			25.830			-2.870
163705.000			25.828			-2.870
163804.000			25.828			-2.870
163904.000			25.827			-2.870
164005.000			25.827			-2.870
164104.000			25.827			-2.870
164204.000			25.826			-2.870
164305.000			25.825			-2.869
164403.000			25.825			-2.869
164504.000			25.825			-2.869
164605.000			25.826			-2.870
164704.000			25.825			-2.869
164804.000			25.825			-2.869
164905.000			25.824			-2.869
165004.000			25.822			-2.869
165104.000			25.822			-2.869
165205.000			25.823			-2.869
165303.000			25.823			-2.869
165404.000			25.823			-2.869
165505.000			25.822			-2.869
165604.000			25.821			-2.869
165705.000			25.821			-2.869
165804.000			25.820			-2.869
165904.000			25.820			-2.869
166005.000			25.819			-2.869
166104.000			25.819			-2.869
166203.000			25.819			-2.869
166305.000			25.819			-2.869
166404.000			25.819			-2.869
166504.000			25.819			-2.869
166605.000			25.819			-2.869
166704.000			25.819			-2.869
166804.000			25.819			-2.869
166905.000			25.817			-2.869
167004.000			25.816			-2.868
167103.000			25.816			-2.868
167205.000			25.816			-2.868
167303.000			25.816			-2.868
167404.000			25.816			-2.868
167505.000			25.815			-2.868
167604.000			25.815			-2.868
167704.000			25.814			-2.868
167805.000			25.814			-2.868
167904.000			25.813			-2.868
168003.000			25.813			-2.868
168105.000			25.812			-2.868
168203.000			25.812			-2.868
168304.000			25.812			-2.868
168405.000			25.812			-2.868
168504.000			25.811			-2.868
168604.000			25.810			-2.868
168704.000			25.810			-2.868
168804.000			25.810			-2.868
168904.000			25.810			-2.868
169004.000			25.809			-2.868
169103.000			25.808			-2.868
169205.000			25.808			-2.868
169304.000			25.808			-2.868
169404.000			25.807			-2.867
169505.000			25.808			-2.868
169604.000			25.807			-2.867
169704.000			25.807			-2.867
169804.000			25.807			-2.867
169904.000			25.806			-2.867
170003.000			25.806			-2.867
170105.000			25.805			-2.867
170204.000			25.804			-2.867
170304.000			25.804			-2.867
170405.000			25.804			-2.867
170504.000			25.804			-2.867
170604.000			25.802			-2.867
170704.000			25.803			-2.867
170804.000			25.804			-2.867
170903.000			25.803			-2.867
171005.000			25.802			-2.867
171104.000			25.802			-2.867
171204.000			25.801			-2.867
171305.000			25.801			-2.867
171404.000			25.801			-2.867
171504.000			25.800			-2.867
171604.000			25.799			-2.867
171704.000			25.800			-2.867
171804.000			25.799			-2.867
171904.000			25.799			-2.867
172004.000			25.798			-2.866
172105.000			25.798			-2.866
172204.000			25.798			-2.866
172304.000			25.798			-2.866
172405.000			25.798			-2.866
172503.000			25.797			-2.866
172604.000			25.796			-2.866
172704.000			25.795			-2.866
172804.000			25.795			-2.866
172904.000			25.796			-2.866
173005.000			25.795			-2.866
173104.000			25.795			-2.866
173204.000			25.795			-2.866
173305.000			25.794			-2.866
173404.000			25.794			-2.866
173504.000			25.794			-2.866
173604.000			25.792			-2.866
173704.000			25.791			-2.866
173804.000			25.792			-2.866
173905.000			25.793			-2.866
174004.000			25.792			-2.866
174104.000			25.791			-2.866
174205.000			25.791			-2.866
174304.000			25.791			-2.866
174404.000			25.790			-2.866
174504.000			25.790			-2.866
174604.000			25.790			-2.866
174703.000			25.791			-2.866
174805.000			25.790			-2.866
174904.000			25.790			-2.866
175004.000			25.790			-2.866
175105.000			25.788			-2.865
175204.000			25.787			-2.865
175305.000			25.787			-2.865
175404.000			25.786			-2.865
175504.000			25.786			-2.865
175604.000			25.786			-2.865
175704.000			25.786			-2.865
175804.000			25.785			-2.865
175905.000			25.785			-2.865
176004.000			25.786			-2.865
176104.000			25.783			-2.865
176205.000			25.784			-2.865
176304.000			25.785			-2.865
176404.000			25.784			-2.865
176504.000			25.784			-2.865
176604.000			25.784			-2.865
176704.000			25.784			-2.865
176805.000			25.781			-2.865
176904.000			25.781			-2.865
177004.000			25.781			-2.865
177105.000			25.780			-2.864
177204.000			25.780			-2.864
177304.000			25.780			-2.864
177404.000			25.780			-2.864
177504.000			25.780			-2.864
177603.000			25.780			-2.864
177705.000			25.779			-2.864
177804.000			25.779			-2.864
177904.000			25.778			-2.864
178005.000			25.779			-2.864
178104.000			25.780			-2.864
178204.000			25.778			-2.864
178304.000			25.777			-2.864
178404.000			25.777			-2.864
178504.000			25.777			-2.864
178604.000			25.777			-2.864
178704.000			25.777			-2.864
178805.000			25.777			-2.864
178904.000			25.776			-2.864
179004.000			25.776			-2.864
179105.000			25.775			-2.864
179204.000			25.775			-2.864
179304.000			25.774			-2.864
179404.000			25.774			-2.864
179504.000			25.774			-2.864
179603.000			25.774			-2.864
179705.000			25.772			-2.864
179804.000			25.772			-2.864
179904.000			25.772			-2.864
180005.000			25.772			-2.864
180104.000			25.771			-2.863
180204.000			25.771			-2.863
180304.000			25.771			-2.863
180404.000			25.769			-2.863
180503.000			25.769			-2.863
180605.000			25.769			-2.863
180704.000			25.769			-2.863
180804.000			25.769			-2.863
180905.000			25.768			-2.863
181004.000			25.768			-2.863
181104.000			25.768			-2.863
181205.000			25.768			-2.863
181304.000			25.768			-2.863
181403.000			25.766			-2.863
181505.000			25.766			-2.863
181604.000			25.766			-2.863
181705.000			25.766			-2.863
181804.000			25.765			-2.863
181904.000			25.764			-2.863
182005.000			25.764			-2.863
182104.000			25.763			-2.863
182204.000			25.763			-2.863
182304.000			25.763			-2.863
182404.000			25.764			-2.863
182504.000			25.763			-2.863
182605.000			25.762			-2.862
182704.000			25.762			-2.862
182804.000			25.762			-2.862
182905.000			25.762			-2.862
183004.000			25.761			-2.862
183104.000			25.761			-2.862
183204.000			25.760			-2.862
183304.000			25.760			-2.862
183404.000			25.760			-2.862
183505.000			25.759			-2.862
183604.000			25.759			-2.862
183704.000			25.759			-2.862
183805.000			25.760			-2.862
183904.000			25.760			-2.862
184004.000			25.758			-2.862
184104.000			25.758			-2.862
184204.000			25.757			-2.862
184303.000			25.757			-2.862
184405.000			25.757			-2.862
184504.000			25.757			-2.862
184604.000			25.757			-2.862
184705.000			25.756			-2.862
184804.000			25.755			-2.862
184905.000			25.755			-2.862
185004.000			25.756			-2.862
185104.000			25.755			-2.862
185204.000			25.755			-2.862
185304.000			25.754			-2.862
185404.000			25.753			-2.861
185505.000			25.752			-2.861
185604.000			25.752			-2.861
185704.000			25.753			-2.861
185805.000			25.752			-2.861
185904.000			25.752			-2.861
186004.000			25.751			-2.861
186104.000			25.751			-2.861
186204.000			25.750			-2.861
186304.000			25.749			-2.861
186405.000			25.750			-2.861
186504.000			25.750			-2.861
186604.000			25.750			-2.861
186705.000			25.749			-2.861
186804.000			25.749			-2.861
186904.000			25.749			-2.861
187004.000			25.748			-2.861
187104.000			25.747			-2.861
187203.000			25.746			-2.861
187305.000			25.747			-2.861
187404.000			25.747			-2.861
187504.000			25.747			-2.861
187605.000			25.747			-2.861
187704.000			25.746			-2.861
187804.000			25.746			-2.861
187904.000			25.746			-2.861
188004.000			25.745			-2.861
188104.000			25.744			-2.860
188204.000			25.744			-2.860
188304.000			25.743			-2.860
188405.000			25.742			-2.860
188504.000			25.742			-2.860
188604.000			25.743			-2.860
188705.000			25.742			-2.860
188804.000			25.741			-2.860
188904.000			25.741			-2.860
189004.000			25.741			-2.860
189104.000			25.740			-2.860
189204.000			25.740			-2.860
189305.000			25.740			-2.860
189404.000			25.740			-2.860
189504.000			25.740			-2.860
189605.000			25.739			-2.860
189704.000			25.738			-2.860
189804.000			25.738			-2.860
189904.000			25.739			-2.860
190004.000			25.737			-2.860
190103.000			25.738			-2.860
190205.000			25.738			-2.860
190304.000			25.739			-2.860
190404.000			25.738			-2.860
190505.000			25.737			-2.860
190604.000			25.735			-2.859
190704.000			25.735			-2.859
190804.000			25.735			-2.859
190904.000			25.735			-2.859
191003.000			25.734			-2.859
191105.000			25.734			-2.859
191204.000			25.734			-2.859
191305.000			25.734			-2.859
191404.000			25.734			-2.859
191504.000			25.734			-2.859
191605.000			25.733			-2.859
191703.000			25.732			-2.859
191804.000			25.732			-2.859
191904.000			25.732			-2.859
192004.000			25.731			-2.859
192104.000			25.732			-2.859
192205.000			25.731			-2.859
192304.000			25.729			-2.859
192404.000			25.730			-2.859
192505.000			25.730			-2.859
192603.000			25.731			-2.859
192704.000			25.730			-2.859
192804.000			25.730			-2.859
192904.000			25.729			-2.859
193004.000			25.729			-2.859
193105.000			25.729			-2.859
193204.000			25.729			-2.859
193304.000			25.729			-2.859
193405.000			25.727			-2.859
193503.000			25.727			-2.859
193604.000			25.726			-2.858
193704.000			25.726			-2.858
193804.000			25.725			-2.858
193904.000			25.726			-2.858
194005.000			25.726			-2.858
194104.000			25.726			-2.858
194204.000			25.726			-2.858
194305.000			25.725			-2.858
194403.000			25.724			-2.858
194505.000			25.724			-2.858
194603.000			25.723			-2.858
194704.000			25.723			-2.858
194805.000			25.722			-2.858
194904.000			25.722			-2.858
195004.000			25.723			-2.858
195105.000			25.723			-2.858
195204.000			25.721			-2.858
195304.000			25.721			-2.858
195405.000			25.721			-2.858
195503.000			25.721			-2.858
195604.000			25.720			-2.858
195705.000			25.720			-2.858
195804.000			25.719			-2.858
195904.000			25.720			-2.858
196005.000			25.720			-2.858
196104.000			25.718			-2.858
196204.000			25.718			-2.858
196305.000			25.717			-2.857
196403.000			25.718			-2.858
196504.000			25.718			-2.858
196605.000			25.718			-2.858
196704.000			25.718			-2.858
196804.000			25.716			-2.857
196905.000			25.716			-2.857
197004.000			25.716			-2.857
197104.000			25.714			-2.857
197205.000			25.714			-2.857
197303.000			25.715			-2.857
197404.000			25.715			-2.857
197503.000			25.714			-2.857
197604.000			25.714			-2.857
197705.000			25.714			-2.857
197804.000			25.713			-2.857
197904.000			25.712			-2.857
198005.000			25.712			-2.857
198104.000			25.712			-2.857
198204.000			25.712			-2.857
198305.000			25.712			-2.857
198403.000			25.712			-2.857
198504.000			25.711			-2.857
198605.000			25.711			-2.857
198704.000			25.711			-2.857
198804.000			25.711			-2.857
198905.000			25.712			-2.857
199004.000			25.711			-2.857
199104.000			25.709			-2.857
199205.000			25.709			-2.857
199303.000			25.709			-2.857
199404.000			25.709			-2.857
199505.000			25.708			-2.856
199604.000			25.708			-2.856
199704.000			25.708			-2.856
199805.000			25.707			-2.856
199904.000			25.708			-2.856
200004.000			25.708			-2.856
200105.000			25.706			-2.856
200203.000			25.705			-2.856
200304.000			25.705			-2.856
200405.000			25.706			-2.856
200504.000			25.706			-2.856
200604.000			25.705			-2.856
200704.000			25.705			-2.856
200804.000			25.705			-2.856
200905.000			25.704			-2.856
201004.000			25.704			-2.856
201103.000			25.704			-2.856
201205.000			25.703			-2.856
201304.000			25.704			-2.856
201404.000			25.703			-2.856
201505.000			25.702			-2.856
201604.000			25.702			-2.856
201704.000			25.701			-2.856
201804.000			25.701			-2.856
201904.000			25.701			-2.856
202003.000			25.701			-2.856
202105.000			25.700			-2.856
202204.000			25.700			-2.856
202304.000			25.700			-2.856
202405.000			25.699			-2.855
202504.000			25.699			-2.855
202604.000			25.699			-2.855
202704.000			25.698			-2.855
202804.000			25.699			-2.855
202903.000			25.699			-2.855
203005.000			25.698			-2.855
203104.000			25.698			-2.855
203204.000			25.697			-2.855
203305.000			25.696			-2.855
203404.000			25.695			-2.855
203504.000			25.696			-2.855
203604.000			25.695			-2.855
203704.000			25.695			-2.855
203803.000			25.695			-2.855
203905.000			25.695			-2.855
204004.000			25.695			-2.855
204105.000			25.694			-2.855
204204.000			25.693			-2.855
204304.000			25.692			-2.855
204405.000			25.692			-2.855
204503.000			25.693			-2.855
204604.000			25.693			-2.855
204704.000			25.692			-2.855
204804.000			25.691			-2.855
204904.000			25.691			-2.855
205005.000			25.691			-2.855
205104.000			25.690			-2.854
205204.000			25.691			-2.855
205305.000			25.691			-2.855
205403.000			25.691			-2.855
205504.000			25.690			-2.854
205605.000			25.689			-2.854
205704.000			25.689			-2.854
205804.000			25.689			-2.854
205905.000			25.689			-2.854
206004.000			25.688			-2.854
206104.000			25.688			-2.854
206205.000			25.688			-2.854
206303.000			25.687			-2.854
206404.000			25.687			-2.854
206505.000			25.686			-2.854
206604.000			25.686			-2.854
206704.000			25.685			-2.854
206805.000			25.686			-2.854
206904.000			25.685			-2.854
207004.000			25.685			-2.854
207105.000			25.685			-2.854
207203.000			25.685			-2.854
207305.000			25.685			-2.854
207404.000			25.685			-2.854
207504.000			25.685			-2.854
207605.000			25.685			-2.854
207704.000			25.684			-2.854
207804.000			25.683			-2.854
207905.000			25.682			-2.854
208004.000			25.681			-2.853
208103.000			25.682			-2.854
208205.000			25.682			-2.854
208304.000			25.681			-2.853
208404.000			25.681			-2.853
208505.000			25.680			-2.853
208604.000			25.680			-2.853
208704.000			25.680			-2.853
208805.000			25.680			-2.853
208904.000			25.679			-2.853
209003.000			25.678			-2.853
209105.000			25.678			-2.853
209204.000			25.679			-2.853
209304.000			25.678			-2.853
209405.000			25.678			-2.853
209504.000			25.678			-2.853
209604.000			25.677			-2.853
209705.000			25.675			-2.853
209804.000			25.677			-2.853
209903.000			25.677			-2.853
210005.000			25.677			-2.853
210103.000			25.677			-2.853
210204.000			25.677			-2.853
210305.000			25.676			-2.853
210404.000			25.675			-2.853
210505.000			25.675			-2.853
210604.000			25.675			-2.853
210704.000			25.674			-2.853
210804.000			25.674			-2.853
210904.000			25.673			-2.853
211003.000			25.673			-2.853
211105.000			25.673			-2.853
211204.000			25.672			-2.852
211304.000			25.671			-2.852
211405.000			25.672			-2.852
211504.000			25.672			-2.852
211604.000			25.672			-2.852
211704.000			25.672			-2.852
211804.000			25.671			-2.852
211903.000			25.670			-2.852
212005.000			25.671			-2.852
212104.000			25.671			-2.852
212204.000			25.670			-2.852
212305.000			25.669			-2.852
212404.000			25.669			-2.852
212504.000			25.669			-2.852
212604.000			25.668			-2.852
212704.000			25.668			-2.852
212803.000			25.668			-2.852
212905.000			25.669			-2.852
213004.000			25.668			-2.852
213104.000			25.668			-2.852
213205.000			25.668			-2.852
213304.000			25.667			-2.852
213404.000			25.666			-2.852
213503.000			25.666			-2.852
213604.000			25.666			-2.852
213705.000			25.666			-2.852
213804.000			25.664			-2.852
213904.000			25.665			-2.852
214005.000			25.664			-2.852
214104.000			25.664			-2.852
214204.000			25.665			-2.852
214305.000			25.664			-2.852
214403.000			25.664			-2.852
214504.000			25.663			-2.851
214605.000			25.662			-2.851
214704.000			25.661			-2.851
214804.000			25.662			-2.851
214905.000			25.662			-2.851
215004.000			25.662			-2.851
215104.000			25.662			-2.851
215205.000			25.662			-2.851
215303.000			25.661			-2.851
215404.000			25.660			-2.851
215505.000			25.661			-2.851
215604.000			25.661			-2.851
215704.000			25.660			-2.851
215805.000			25.659			-2.851
215904.000			25.660			-2.851
216004.000			25.659			-2.851
216105.000			25.658			-2.851
216203.000			25.659			-2.851
216304.000			25.658			-2.851
216405.000			25.657			-2.851
216504.000			25.656			-2.851
216604.000			25.656			-2.851
216704.000			25.656			-2.851
216804.000			25.656			-2.851
216905.000			25.655			-2.851
217004.000			25.656			-2.851
217103.000			25.657			-2.851
217205.000			25.656			-2.851
217304.000			25.655			-2.851
217404.000			25.655			-2.851
217505.000			25.655			-2.851
217604.000			25.654			-2.850
217704.000			25.655			-2.851
217805.000			25.655			-2.851
217904.000			25.654			-2.850
218003.000			25.654			-2.850
218105.000			25.654			-2.850
218204.000			25.652			-2.850
218304.000			25.652			-2.850
218405.000			25.653			-2.850
218504.000			25.652			-2.850
218604.000			25.652			-2.850
218705.000			25.651			-2.850
218804.000			25.650			-2.850
218903.000			25.650			-2.850
219005.000			25.650			-2.850
219104.000			25.651			-2.850
219204.000			25.651			-2.850
219305.000			25.651			-2.850
219404.000			25.649			-2.850
219504.000			25.649			-2.850
219605.000			25.650			-2.850
219704.000			25.649			-2.850
219803.000			25.648			-2.850
219905.000			25.648			-2.850
220004.000			25.648			-2.850
220105.000			25.648			-2.850
220204.000			25.648			-2.850
220304.000			25.647			-2.850
220405.000			25.647			-2.850
220504.000			25.646			-2.850
220604.000			25.646			-2.850
220704.000			25.645			-2.849
220804.000			25.645			-2.849
220904.000			25.645			-2.849
221005.000			25.645			-2.849
221104.000			25.644			-2.849
221204.000			25.644			-2.849
221305.000			25.645			-2.849
221404.000			25.645			-2.849
221504.000			25.643			-2.849
221604.000			25.643			-2.849
221704.000			25.642			-2.849
221804.000			25.642			-2.849
221905.000			25.643			-2.849
222004.000			25.642			-2.849
222104.000			25.643			-2.849
222205.000			25.642			-2.849
222303.000			25.641			-2.849
222404.000			25.641			-2.849
222504.000			25.641			-2.849
222604.000			25.641			-2.849
222704.000			25.641			-2.849
222805.000			25.641			-2.849
222904.000			25.640			-2.849
223004.000			25.639			-2.849
223105.000			25.639			-2.849
223203.000			25.639			-2.849
223305.000			25.639			-2.849
223404.000			25.640			-2.849
223504.000			25.639			-2.849
223605.000			25.638			-2.849
223704.000			25.637			-2.849
223804.000			25.636			-2.848
223905.000			25.637			-2.849
224004.000			25.637			-2.849
224103.000			25.637			-2.849
224205.000			25.637			-2.849
224303.000			25.637			-2.849
224404.000			25.637			-2.849
224505.000			25.636			-2.848
224604.000			25.635			-2.848
224704.000			25.634			-2.848
224805.000			25.635			-2.848
224904.000			25.635			-2.848
225003.000			25.634			-2.848
225105.000			25.634			-2.848
225204.000			25.635			-2.848
225304.000			25.634			-2.848
225405.000			25.633			-2.848
225504.000			25.633			-2.848
225604.000			25.632			-2.848
225705.000			25.632			-2.848
225804.000			25.631			-2.848
225903.000			25.631			-2.848
226005.000			25.633			-2.848
226104.000			25.632			-2.848
226204.000			25.631			-2.848
226305.000			25.632			-2.848
226404.000			25.631			-2.848
226505.000			25.630			-2.848
226604.000			25.630			-2.848
226704.000			25.630			-2.848
226804.000			25.629			-2.848
226904.000			25.628			-2.848
227004.000			25.628			-2.848
227105.000			25.628			-2.848
227204.000			25.627			-2.847
227304.000			25.628			-2.848
227405.000			25.628			-2.848
227504.000			25.627			-2.847
227604.000			25.626			-2.847
227704.000			25.626			-2.847
227804.000			25.626			-2.847
227904.000			25.626			-2.847
228005.000			25.626			-2.847
228104.000			25.626			-2.847
228204.000			25.626			-2.847
228305.000			25.626			-2.847
228404.000			25.625			-2.847
228504.000			25.624			-2.847
228604.000			25.624			-2.847
228704.000			25.624			-2.847
228804.000			25.624			-2.847
228905.000			25.623			-2.847
229004.000			25.623			-2.847
229104.000			25.623			-2.847
229205.000			25.623			-2.847
229304.000			25.622			-2.847
229404.000			25.622			-2.847
229503.000			25.623			-2.847
229604.000			25.623			-2.847
229705.000			25.622			-2.847
229804.000			25.621			-2.847
229904.000			25.620			-2.847
230005.000			25.619			-2.847
230104.000			25.620			-2.847
230204.000			25.620			-2.847
230305.000			25.620			-2.847
230403.000			25.619			-2.847
230504.000			25.619			-2.847
230605.000			25.618			-2.846
230704.000			25.618			-2.846
230804.000			25.620			-2.847
230905.000			25.619			-2.847
231004.000			25.618			-2.846
231104.000			25.617			-2.846
231205.000			25.616			-2.846
231303.000			25.617			-2.846
231404.000			25.617			-2.846
231505.000			25.618			-2.846
231604.000			25.617			-2.846
231704.000			25.616			-2.846
231805.000			25.615			-2.846
231904.000			25.616			-2.846
232003.000			25.615			-2.846
232105.000			25.615			-2.846
232204.000			25.615			-2.846
232304.000			25.615			-2.846
232405.000			25.615			-2.846
232504.000			25.614			-2.846
232604.000			25.613			-2.846
232704.000			25.614			-2.846
232804.000			25.613			-2.846
232904.000			25.613			-2.846
233004.000			25.612			-2.846
233104.000			25.612			-2.846
233205.000			25.612			-2.846
233304.000			25.611			-2.846
233404.000			25.612			-2.846
233505.000			25.611			-2.846
233604.000			25.611			-2.846
233704.000			25.611			-2.846
233804.000			25.611			-2.846
233904.000			25.611			-2.846
234004.000			25.611			-2.846
234105.000			25.609			-2.845
234204.000			25.609			-2.845
234304.000			25.608			-2.845
234405.000			25.609			-2.845
234503.000			25.608			-2.845
234604.000			25.608			-2.845
234704.000			25.607			-2.845
234804.000			25.608			-2.845
234904.000			25.609			-2.845
235005.000			25.608			-2.845
235104.000			25.609			-2.845
235204.000			25.608			-2.845
235305.000			25.607			-2.845
235404.000			25.607			-2.845
235504.000			25.607			-2.845
235604.000			25.606			-2.845
235704.000			25.606			-2.845
235804.000			25.607			-2.845
235904.000			25.607			-2.845
236004.000			25.604			-2.845
236105.000			25.605			-2.845
236204.000			25.604			-2.845
236303.000			25.604			-2.845
236405.000			25.604			-2.845
236503.000			25.604			-2.845
236604.000			25.604			-2.845
236705.000			25.604			-2.845
236804.000			25.602			-2.845
236904.000			25.603			-2.845
237005.000			25.603			-2.845
237104.000			25.604			-2.845
237203.000			25.603			-2.845
237305.000			25.602			-2.845
237404.000			25.601			-2.845
237504.000			25.601			-2.845
237605.000			25.601			-2.845
237704.000			25.600			-2.844
237804.000			25.600			-2.844
237905.000			25.601			-2.845
238004.000			25.599			-2.844
238103.000			25.598			-2.844
238205.000			25.598			-2.844
238304.000			25.598			-2.844
238404.000			25.599			-2.844
238505.000			25.599			-2.844
238604.000			25.598			-2.844
238704.000			25.598			-2.844
238805.000			25.598			-2.844
238904.000			25.597			-2.844
239003.000			25.597			-2.844
239105.000			25.597			-2.844
239203.000			25.598			-2.844
239305.000			25.597			-2.844
239404.000			25.596			-2.844
239504.000			25.596			-2.844
239605.000			25.596			-2.844
239704.000			25.596			-2.844
239804.000			25.595			-2.844
239905.000			25.594			-2.844
240004.000			25.595			-2.844
240103.000			25.594			-2.844
240205.000			25.593			-2.844
240304.000			25.594			-2.844
240404.000			25.593			-2.844
240505.000			25.594			-2.844
240604.000			25.593			-2.844
240704.000			25.593			-2.844
240805.000			25.594			-2.844
240904.000			25.593			-2.844
241003.000			25.591			-2.843
241105.000			25.591			-2.843
241204.000			25.591			-2.843
241304.000			25.590			-2.843
241405.000			25.591			-2.843
241504.000			25.591			-2.843
241604.000			25.590			-2.843
241704.000			25.590			-2.843
241804.000			25.590			-2.843
241903.000			25.590			-2.843
242005.000			25.590			-2.843
242104.000			25.589			-2.843
242204.000			25.590			-2.843
242305.000			25.589			-2.843
242404.000			25.589			-2.843
242505.000			25.588			-2.843
242604.000			25.589			-2.843
242704.000			25.588			-2.843
242804.000			25.587			-2.843
242904.000			25.587			-2.843
243004.000			25.588			-2.843
243105.000			25.587			-2.843
243204.000			25.586			-2.843
243304.000			25.586			-2.843
243405.000			25.586			-2.843
243504.000			25.586			-2.843
243604.000			25.586			-2.843
243704.000			25.586			-2.843
243804.000			25.586			-2.843
243903.000			25.584			-2.843
244005.000			25.584			-2.843
244104.000			25.584			-2.843
244204.000			25.583			-2.843
244305.000			25.583			-2.843
244404.000			25.584			-2.843
244504.000			25.584			-2.843
244604.000			25.583			-2.843
244704.000			25.583			-2.843
244804.000			25.583			-2.843
244905.000			25.583			-2.843
245004.000			25.582			-2.842
245104.000			25.581			-2.842
245205.000			25.581			-2.842
245304.000			25.581			-2.842
245404.000			25.580			-2.842
245503.000			25.580			-2.842
245604.000			25.579			-2.842
245704.000			25.579			-2.842
245804.000			25.579			-2.842
245904.000			25.579			-2.842
246005.000			25.579			-2.842
246104.000			25.579			-2.842
246204.000			25.578			-2.842
246305.000			25.578			-2.842
246403.000			25.578			-2.842
246504.000			25.578			-2.842
246604.000			25.577			-2.842
246704.000			25.577			-2.842
246804.000			25.578			-2.842
246905.000			25.577			-2.842
247004.000			25.576			-2.842
247104.000			25.576			-2.842
247205.000			25.574			-2.842
247304.000			25.574			-2.842
247404.000			25.575			-2.842
247504.000			25.575			-2.842
247604.000			25.574			-2.842
247704.000			25.574			-2.842
247805.000			25.574			-2.842
247904.000			25.573			-2.841
248004.000			25.573			-2.841
248105.000			25.574			-2.842
248204.000			25.574			-2.842
248304.000			25.574			-2.842
248404.000			25.573			-2.841
248504.000			25.572			-2.841
248604.000			25.573			-2.841
248704.000			25.571			-2.841
248804.000			25.572			-2.841
248905.000			25.573			-2.841
249004.000			25.572			-2.841
249104.000			25.571			-2.841
249205.000			25.569			-2.841
249303.000			25.570			-2.841
249404.000			25.570			-2.841
249505.000			25.569			-2.841
249604.000			25.568			-2.841
249704.000			25.570			-2.841
249805.000			25.570			-2.841
249904.000			25.571			-2.841
250004.000			25.570			-2.841
250105.000			25.569			-2.841
250203.000			25.568			-2.841
250304.000			25.569			-2.841
250404.000			25.567			-2.841
250504.000			25.567			-2.841
250604.000			25.569			-2.841
250705.000			25.568			-2.841
250804.000			25.568			-2.841
250904.000			25.566			-2.841
251005.000			25.567			-2.841
251103.000			25.566			-2.841
251204.000			25.566			-2.841
251304.000			25.565			-2.841
251404.000			25.565			-2.841
251504.000			25.564			-2.840
251605.000			25.565			-2.841
251704.000			25.564			-2.840
251804.000			25.562			-2.840
251905.000			25.564			-2.840
252003.000			25.565			-2.841
252105.000			25.564			-2.840
252203.000			25.562			-2.840
252304.000			25.562			-2.840
252405.000			25.562			-2.840
252504.000			25.563			-2.840
252604.000			25.564			-2.840
252705.000			25.563			-2.840
252804.000			25.562			-2.840
252903.000			25.561			-2.840
253005.000			25.561			-2.840
253104.000			25.561			-2.840
253204.000			25.562			-2.840
253305.000			25.561			-2.840
253404.000			25.561			-2.840
253504.000			25.561			-2.840
253605.000			25.561			-2.840
253704.000			25.560			-2.840
253803.000			25.559			-2.840
253905.000			25.559			-2.840
254004.000			25.559			-2.840
254104.000			25.559			-2.840
254205.000			25.559			-2.840
254304.000			25.558			-2.840
254404.000			25.558			-2.840
254505.000			25.557			-2.840
254604.000			25.557			-2.840
254703.000			25.558			-2.840
254805.000			25.558			-2.840
254904.000			25.556			-2.840
255004.000			25.555			-2.839
255105.000			25.556			-2.840
255204.000			25.556			-2.840
255305.000			25.556			-2.840
255404.000			25.556			-2.840
255504.000			25.556			-2.840
255604.000			25.556			-2.840
255704.000			25.554			-2.839
255803.000			25.555			-2.839
255905.000			25.554			-2.839
256004.000			25.553			-2.839
256104.000			25.553			-2.839
256205.000			25.554			-2.839
256304.000			25.554			-2.839
256404.000			25.553			-2.839
256504.000			25.552			-2.839
256604.000			25.552			-2.839
256703.000			25.552			-2.839
256805.000			25.551			-2.839
256904.000			25.552			-2.839
257004.000			25.551			-2.839
257105.000			25.551			-2.839
257204.000			25.551			-2.839
257304.000			25.550			-2.839
257404.000			25.551			-2.839
257504.000			25.551			-2.839
257603.000			25.549			-2.839
257705.000			25.549			-2.839
257804.000			25.549			-2.839
257904.000			25.549			-2.839
258005.000			25.549			-2.839
258104.000			25.548			-2.839
258204.000			25.549			-2.839
258304.000			25.549			-2.839
258404.000			25.548			-2.839
258504.000			25.548			-2.839
258604.000			25.548			-2.839
258704.000			25.547			-2.839
258805.000			25.547			-2.839
258904.000			25.547			-2.839
259004.000			25.547			-2.839
259105.000			25.546			-2.838
259204.000			25.546			-2.838
259304.000			25.546			-2.838
259404.000			25.546			-2.838
259504.000			25.547			-2.839
259603.000			25.546			-2.838
259705.000			25.545			-2.838
259804.000			25.546			-2.838
259904.000			25.545			-2.838
260005.000			25.545			-2.838
260104.000			25.545			-2.838
260204.000			25.545			-2.838
260304.000			25.545			-2.838
260404.000			25.545			-2.838
260503.000			25.545			-2.838
260605.000			25.543			-2.838
260704.000			25.542			-2.838
260804.000			25.541			-2.838
260905.000			25.542			-2.838
261004.000			25.542			-2.838
261104.000			25.541			-2.838
261204.000			25.541			-2.838
261304.000			25.541			-2.838
261404.000			25.542			-2.838
261504.000			25.541			-2.838
261604.000			25.541			-2.838
261705.000			25.539			-2.838
261804.000			25.539			-2.838
261904.000			25.540			-2.838
262005.000			25.540			-2.838
262103.000			25.540			-2.838
262204.000			25.540			-2.838
262305.000			25.539			-2.838
262404.000			25.539			-2.838
262504.000			25.540			-2.838
262605.000			25.540			-2.838
262704.000			25.537			-2.837
262804.000			25.538			-2.838
262905.000			25.538			-2.838
263003.000			25.537			-2.837
263104.000			25.537			-2.837
263205.000			25.537			-2.837
263304.000			25.537			-2.837
263404.000			25.536			-2.837
263505.000			25.535			-2.837
263604.000			25.535			-2.837
263704.000			25.535			-2.837
263805.000			25.535			-2.837
263903.000			25.535			-2.837
264004.000			25.534			-2.837
264105.000			25.536			-2.837
264204.000			25.535			-2.837
264304.000			25.535			-2.837
264405.000			25.535			-2.837
264504.000			25.535			-2.837
264604.000			25.535			-2.837
264705.000			25.534			-2.837
264803.000			25.532			-2.837
264905.000			25.532			-2.837
265004.000			25.533			-2.837
265104.000			25.533			-2.837
265205.000			25.533			-2.837
265304.000			25.533			-2.837
265404.000			25.533			-2.837
265505.000			25.532			-2.837
265604.000			25.531			-2.837
265703.000			25.532			-2.837
265805.000			25.531			-2.837
265904.000			25.531			-2.837
266004.000			25.531			-2.837
266105.000			25.531			-2.837
266204.000			25.530			-2.837
266304.000			25.530			-2.837
266404.000			25.529			-2.837
266504.000			25.527			-2.836
266603.000			25.528			-2.836
266705.000			25.528			-2.836
266804.000			25.527			-2.836
266904.000			25.527			-2.836
267005.000			25.527			-2.836
267104.000			25.526			-2.836
267204.000			25.526			-2.836
267304.000			25.527			-2.836
267404.000			25.526			-2.836
267503.000			25.526			-2.836
267605.000			25.527			-2.836
267704.000			25.526			-2.836
267804.000			25.526			-2.836
267905.000			25.527			-2.836
268004.000			25.526			-2.836
268105.000			25.525			-2.836
268204.000			25.524			-2.836
268304.000			25.524			-2.836
268404.000			25.525			-2.836
268504.000			25.524			-2.836
268604.000			25.524			-2.836
268705.000			25.525			-2.836
268804.000			25.525			-2.836
268904.000			25.524			-2.836
269005.000			25.524			-2.836
269104.000			25.523			-2.836
269204.000			25.522			-2.836
269304.000			25.523			-2.836
269404.000			25.522			-2.836
269504.000			25.521			-2.836
269605.000			25.521			-2.836
269704.000			25.520			-2.836
269804.000			25.521			-2.836
269905.000			25.522			-2.836
270004.000			25.522			-2.836
270104.000			25.520			-2.836
270204.000			25.520			-2.836
270304.000			25.520			-2.836
270404.000			25.520			-2.836
270505.000			25.518			-2.835
270604.000			25.520			-2.836
270704.000			25.519			-2.835
270805.000			25.519			-2.835
270903.000			25.519			-2.835
271004.000			25.518			-2.835
271103.000			25.518			-2.835
271204.000			25.519			-2.835
271305.000			25.518			-2.835
271404.000			25.518			-2.835
271504.000			25.518			-2.835
271605.000			25.518			-2.835
271704.000			25.518			-2.835
271803.000			25.517			-2.835
271905.000			25.517			-2.835
272003.000			25.517			-2.835
272104.000			25.516			-2.835
272205.000			25.516			-2.835
272304.000			25.515			-2.835
272404.000			25.516			-2.835
272505.000			25.515			-2.835
272604.000			25.516			-2.835
272703.000			25.515			-2.835
272805.000			25.514			-2.835
272904.000			25.514			-2.835
273004.000			25.514			-2.835
273105.000			25.514			-2.835
273204.000			25.513			-2.835
273304.000			25.513			-2.835
273405.000			25.513			-2.835
273504.000			25.513			-2.835
273603.000			25.513			-2.835
273705.000			25.512			-2.835
273804.000			25.512			-2.835
273904.000			25.512			-2.835
274005.000			25.512			-2.835
274104.000			25.511			-2.835
274204.000			25.511			-2.835
274304.000			25.511			-2.835
274404.000			25.510			-2.834
274504.000			25.510			-2.834
274604.000			25.510			-2.834
274704.000			25.511			-2.835
274805.000			25.510			-2.834
274904.000			25.510			-2.834
275004.000			25.510			-2.834
275105.000			25.509			-2.834
275204.000			25.509			-2.834
275304.000			25.509			-2.834
275404.000			25.509			-2.834
275504.000			25.509			-2.834
275604.000			25.508			-2.834
275705.000			25.507			-2.834
275804.000			25.506			-2.834
275904.000			25.506			-2.834
276005.000			25.507			-2.834
276104.000			25.508			-2.834
276204.000			25.508			-2.834
276304.000			25.507			-2.834
276404.000			25.505			-2.834
276504.000			25.506			-2.834
276605.000			25.505			-2.834
276704.000			25.505			-2.834
276804.000			25.504			-2.834
276905.000			25.505			-2.834
277004.000			25.504			-2.834
277104.000			25.506			-2.834
277204.000			25.505			-2.834
277304.000			25.505			-2.834
277404.000			25.505			-2.834
277504.000			25.504			-2.834
277604.000			25.503			-2.834
277705.000			25.503			-2.834
277804.000			25.502			-2.834
277903.000			25.503			-2.834
278005.000			25.503			-2.834
278103.000			25.502			-2.834
278204.000			25.502			-2.834
278305.000			25.501			-2.833
278404.000			25.502			-2.834
278504.000			25.501			-2.833
278605.000			25.501			-2.833
278704.000			25.501			-2.833
278803.000			25.501			-2.833
278905.000			25.501			-2.833
279004.000			25.501			-2.833
279104.000			25.499			-2.833
279205.000			25.499			-2.833
279304.000			25.499			-2.833
279404.000			25.500			-2.833
279505.000			25.499			-2.833
279604.000			25.499			-2.833
279703.000			25.499			-2.833
279805.000			25.500			-2.833
279903.000			25.499			-2.833
280004.000			25.499			-2.833
280105.000			25.498			-2.833
280204.000			25.497			-2.833
280304.000			25.498			-2.833
280405.000			25.499			-2.833
280504.000			25.498			-2.833
280604.000			25.496			-2.833
280705.000			25.497			-2.833
280803.000			25.497			-2.833
280905.000			25.496			-2.833
281004.000			25.496			-2.833
281104.000			25.496			-2.833
281205.000			25.496			-2.833
281304.000			25.496			-2.833
281404.000			25.494			-2.833
281505.000			25.494			-2.833
281604.000			25.494			-2.833
281703.000			25.494			-2.833
281805.000			25.495			-2.833
281904.000			25.495			-2.833
282004.000			25.495			-2.833
282105.000			25.495			-2.833
282204.000			25.494			-2.833
282304.000			25.494			-2.833
282405.000			25.493			-2.833
282504.000			25.493			-2.833
282603.000			25.492			-2.832
282705.000			25.492			-2.832
282804.000			25.493			-2.833
282904.000			25.491			-2.832
283005.000			25.491			-2.832
283104.000			25.491			-2.832
283204.000			25.490			-2.832
283305.000			25.490			-2.832
283404.000			25.490			-2.832
283503.000			25.492			-2.832
283605.000			25.490			-2.832
283704.000			25.490			-2.832
283804.000			25.490			-2.832
283905.000			25.490			-2.832
284004.000			25.491			-2.832
284105.000			25.490			-2.832
284204.000			25.489			-2.832
284304.000			25.488			-2.832
284404.000			25.488			-2.832
284504.000			25.488			-2.832
284603.000			25.487			-2.832
284705.000			25.487			-2.832
284804.000			25.488			-2.832
284904.000			25.487			-2.832
285005.000			25.486			-2.832
285104.000			25.487			-2.832
285204.000			25.488			-2.832
285305.000			25.487			-2.832
285404.000			25.485			-2.832
285503.000			25.485			-2.832
285605.000			25.486			-2.832
285704.000			25.486			-2.832
285804.000			25.486			-2.832
285905.000			25.485			-2.832
286004.000			25.485			-2.832
286104.000			25.485			-2.832
286205.000			25.486			-2.832
286304.000			25.486			-2.832
286403.000			25.484			-2.832
286505.000			25.483			-2.831
286604.000			25.484			-2.832
286704.000			25.485			-2.832
286805.000			25.483			-2.831
286904.000			25.482			-2.831
287004.000			25.482			-2.831
287104.000			25.483			-2.831
287204.000			25.483			-2.831
287304.000			25.482			-2.831
287404.000			25.481			-2.831
287504.000			25.481			-2.831
287605.000			25.482			-2.831
287704.000			25.481			-2.831
287804.000			25.480			-2.831
287905.000			25.481			-2.831
288004.000			25.481			-2.831
288104.000			25.480			-2.831
288204.000			25.481			-2.831
288304.000			25.480			-2.831
288404.000			25.479			-2.831
288505.000			25.480			-2.831
288604.000			25.480			-2.831
288704.000			25.477			-2.831
288805.000			25.477			-2.831
288904.000			25.478			-2.831
289004.000			25.478			-2.831
289105.000			25.478			-2.831
289204.000			25.478			-2.831
289303.000			25.476			-2.831
289405.000			25.478			-2.831
289504.000			25.477			-2.831
289604.000			25.478			-2.831
289705.000			25.478			-2.831
289804.000			25.477			-2.831
289904.000			25.476			-2.831
290005.000			25.476			-2.831
290104.000			25.476			-2.831
290203.000			25.475			-2.831
290305.000			25.475			-2.831
290404.000			25.474			-2.830
290505.000			25.474			-2.830
290604.000			25.474			-2.830
290704.000			25.474			-2.830
290805.000			25.475			-2.831
290904.000			25.475			-2.831
291004.000			25.474			-2.830
291104.000			25.473			-2.830
291204.000			25.473			-2.830
291304.000			25.473			-2.830
291405.000			25.473			-2.830
291504.000			25.473			-2.830
291604.000			25.473			-2.830
291705.000			25.472			-2.830
291804.000			25.472			-2.830
291904.000			25.471			-2.830
292004.000			25.472			-2.830
292104.000			25.472			-2.830
292204.000			25.471			-2.830
292305.000			25.472			-2.830
292404.000			25.472			-2.830
292504.000			25.472			-2.830
292605.000			25.471			-2.830
292704.000			25.470			-2.830
292804.000			25.470			-2.830
292904.000			25.470			-2.830
293004.000			25.469			-2.830
293104.000			25.469			-2.830
293205.000			25.470			-2.830
293304.000			25.470			-2.830
293404.000			25.468			-2.830
293505.000			25.467			-2.830
293604.000			25.467			-2.830
293705.000			25.470			-2.830
293803.000			25.469			-2.830
293904.000			25.468			-2.830
294004.000			25.467			-2.830
294104.000			25.466			-2.830
294204.000			25.466			-2.830
294305.000			25.467			-2.830
294404.000			25.466			-2.830
294504.000			25.466			-2.830
294605.000			25.466			-2.830
294704.000			25.466			-2.830
294804.000			25.466			-2.830
294904.000			25.464			-2.829
295004.000			25.465			-2.829
295104.000			25.466			-2.830
295205.000			25.465			-2.829
295304.000			25.464			-2.829
295404.000			25.463			-2.829
295505.000			25.463			-2.829
295604.000			25.464			-2.829
295704.000			25.464			-2.829
295804.000			25.464			-2.829
295904.000			25.463			-2.829
296004.000			25.463			-2.829
296105.000			25.462			-2.829
296204.000			25.462			-2.829
296304.000			25.462			-2.829
296405.000			25.462			-2.829
296504.000			25.462			-2.829
296604.000			25.461			-2.829
296703.000			25.461			-2.829
296804.000			25.461			-2.829
296905.000			25.461			-2.829
297004.000			25.461			-2.829
297104.000			25.462			-2.829
297205.000			25.461			-2.829
297304.000			25.460			-2.829
297404.000			25.459			-2.829
297505.000			25.459			-2.829
297603.000			25.459			-2.829
297704.000			25.461			-2.829
297804.000			25.459			-2.829
297904.000			25.458			-2.829
298004.000			25.460			-2.829
298105.000			25.459			-2.829
298204.000			25.458			-2.829
298304.000			25.458			-2.829
298405.000			25.458			-2.829
298504.000			25.458			-2.829
298604.000			25.457			-2.829
298704.000			25.457			-2.829
298804.000			25.457			-2.829
298904.000			25.457			-2.829
299005.000			25.456			-2.828
299104.000			25.457			-2.829
299204.000			25.457			-2.829
299305.000			25.456			-2.828
299404.000			25.455			-2.828
299504.000			25.456			-2.828
299604.000			25.456			-2.828
299704.000			25.455			-2.828
299803.000			25.455			-2.828
299905.000			25.454			-2.828
