# Acquired on 30/01/2024 11:08:24 
# SPIDER: Creep_11mm_HM077x145x38AA-1
# CREEP MEASUREMENT

# time [ms]		force [N]		stiffness [N/mm]
0.000			-64.236			-5.840
104.000			-65.376			-5.943
204.000			-65.611			-5.965
305.000			-65.318			-5.938
403.000			-64.943			-5.904
504.000			-64.822			-5.893
605.000			-64.717			-5.883
704.000			-64.623			-5.875
804.000			-64.539			-5.867
905.000			-64.461			-5.860
1004.000			-64.388			-5.853
1103.000			-64.262			-5.842
1205.000			-64.205			-5.837
1304.000			-64.150			-5.832
1404.000			-64.100			-5.827
1505.000			-64.051			-5.823
1603.000			-64.007			-5.819
1704.000			-63.964			-5.815
1805.000			-63.924			-5.811
1904.000			-63.846			-5.804
2005.000			-63.810			-5.801
2104.000			-63.776			-5.798
2204.000			-63.742			-5.795
2304.000			-63.710			-5.792
2404.000			-63.678			-5.789
2504.000			-63.648			-5.786
2605.000			-63.591			-5.781
2704.000			-63.563			-5.778
2803.000			-63.536			-5.776
2905.000			-63.510			-5.774
3004.000			-63.486			-5.771
3104.000			-63.461			-5.769
3205.000			-63.437			-5.767
3304.000			-63.392			-5.763
3404.000			-63.370			-5.761
3504.000			-63.349			-5.759
3604.000			-63.327			-5.757
3704.000			-63.306			-5.755
3805.000			-63.285			-5.753
3904.000			-63.265			-5.751
4004.000			-63.227			-5.748
4105.000			-63.208			-5.746
4203.000			-63.190			-5.745
4304.000			-63.172			-5.743
4405.000			-63.154			-5.741
4504.000			-63.136			-5.740
4604.000			-63.119			-5.738
4704.000			-63.103			-5.737
4804.000			-63.071			-5.734
4904.000			-63.055			-5.732
5004.000			-63.039			-5.731
5104.000			-63.024			-5.729
5205.000			-63.009			-5.728
5304.000			-62.994			-5.727
5403.000			-62.980			-5.725
5505.000			-62.951			-5.723
5604.000			-62.936			-5.721
5704.000			-62.922			-5.720
5805.000			-62.908			-5.719
5904.000			-62.894			-5.718
6004.000			-62.881			-5.716
6104.000			-62.868			-5.715
6204.000			-62.842			-5.713
6304.000			-62.830			-5.712
6405.000			-62.818			-5.711
6504.000			-62.806			-5.710
6603.000			-62.794			-5.709
6705.000			-62.782			-5.707
6804.000			-62.771			-5.706
6904.000			-62.746			-5.704
7005.000			-62.735			-5.703
7104.000			-62.724			-5.702
7204.000			-62.713			-5.701
7304.000			-62.702			-5.700
7404.000			-62.691			-5.699
7504.000			-62.680			-5.698
7605.000			-62.670			-5.697
7704.000			-62.648			-5.695
7804.000			-62.638			-5.694
7905.000			-62.627			-5.693
8003.000			-62.618			-5.693
8104.000			-62.609			-5.692
8205.000			-62.600			-5.691
8304.000			-62.589			-5.690
8405.000			-62.569			-5.688
8504.000			-62.560			-5.687
8604.000			-62.551			-5.686
8704.000			-62.542			-5.686
8804.000			-62.533			-5.685
8904.000			-62.524			-5.684
9005.000			-62.515			-5.683
9104.000			-62.497			-5.682
9203.000			-62.489			-5.681
9305.000			-62.480			-5.680
9404.000			-62.471			-5.679
9504.000			-62.462			-5.678
9605.000			-62.453			-5.678
9704.000			-62.445			-5.677
9804.000			-62.429			-5.675
9904.000			-62.420			-5.675
10004.000			-62.413			-5.674
10104.000			-62.404			-5.673
10205.000			-62.396			-5.672
10304.000			-62.387			-5.672
10404.000			-62.380			-5.671
10505.000			-62.372			-5.670
10603.000			-62.357			-5.669
10704.000			-62.349			-5.668
10805.000			-62.340			-5.667
10904.000			-62.333			-5.667
11004.000			-62.326			-5.666
11104.000			-62.318			-5.665
11204.000			-62.310			-5.665
11303.000			-62.296			-5.663
11405.000			-62.289			-5.663
11504.000			-62.283			-5.662
11605.000			-62.276			-5.661
11704.000			-62.269			-5.661
11803.000			-62.262			-5.660
11905.000			-62.254			-5.659
12004.000			-62.241			-5.658
12104.000			-62.235			-5.658
12205.000			-62.227			-5.657
12304.000			-62.220			-5.656
12404.000			-62.214			-5.656
12504.000			-62.207			-5.655
12604.000			-62.200			-5.655
12704.000			-62.187			-5.653
12805.000			-62.180			-5.653
12904.000			-62.175			-5.652
13004.000			-62.169			-5.652
13105.000			-62.162			-5.651
13203.000			-62.156			-5.651
13304.000			-62.150			-5.650
13405.000			-62.137			-5.649
13504.000			-62.131			-5.648
13604.000			-62.125			-5.648
13705.000			-62.120			-5.647
13804.000			-62.114			-5.647
13903.000			-62.108			-5.646
14005.000			-62.102			-5.646
14104.000			-62.095			-5.645
14204.000			-62.084			-5.644
14305.000			-62.077			-5.643
14403.000			-62.072			-5.643
14504.000			-62.065			-5.642
14605.000			-62.060			-5.642
14704.000			-62.055			-5.641
14805.000			-62.049			-5.641
14904.000			-62.038			-5.640
15004.000			-62.032			-5.639
15104.000			-62.026			-5.639
15204.000			-62.021			-5.638
15304.000			-62.015			-5.638
15405.000			-62.010			-5.637
15504.000			-62.004			-5.637
15604.000			-61.994			-5.636
15705.000			-61.988			-5.635
15803.000			-61.982			-5.635
15904.000			-61.977			-5.634
16005.000			-61.972			-5.634
16104.000			-61.968			-5.633
16204.000			-61.963			-5.633
16305.000			-61.953			-5.632
16404.000			-61.947			-5.632
16503.000			-61.941			-5.631
16605.000			-61.936			-5.631
16704.000			-61.930			-5.630
16804.000			-61.926			-5.630
16905.000			-61.920			-5.629
17004.000			-61.916			-5.629
17104.000			-61.906			-5.628
17204.000			-61.901			-5.627
17304.000			-61.896			-5.627
17404.000			-61.892			-5.627
17505.000			-61.887			-5.626
17604.000			-61.882			-5.626
17704.000			-61.876			-5.625
17805.000			-61.868			-5.624
17903.000			-61.863			-5.624
18005.000			-61.858			-5.623
18104.000			-61.853			-5.623
18204.000			-61.848			-5.623
18305.000			-61.844			-5.622
18404.000			-61.840			-5.622
18504.000			-61.829			-5.621
18604.000			-61.824			-5.620
18704.000			-61.819			-5.620
18804.000			-61.816			-5.620
18905.000			-61.813			-5.619
19004.000			-61.809			-5.619
19104.000			-61.803			-5.618
19205.000			-61.794			-5.618
19303.000			-61.789			-5.617
19404.000			-61.785			-5.617
19505.000			-61.782			-5.617
19604.000			-61.777			-5.616
19704.000			-61.773			-5.616
19805.000			-61.770			-5.615
19904.000			-61.765			-5.615
20003.000			-61.756			-5.614
20105.000			-61.751			-5.614
20204.000			-61.747			-5.613
20304.000			-61.743			-5.613
20405.000			-61.738			-5.613
20504.000			-61.734			-5.612
20604.000			-61.730			-5.612
20704.000			-61.722			-5.611
20804.000			-61.718			-5.611
20904.000			-61.715			-5.610
21004.000			-61.710			-5.610
21104.000			-61.705			-5.610
21203.000			-61.701			-5.609
21304.000			-61.698			-5.609
21404.000			-61.690			-5.608
21505.000			-61.686			-5.608
21604.000			-61.682			-5.607
21704.000			-61.678			-5.607
21805.000			-61.674			-5.607
21903.000			-61.670			-5.606
22004.000			-61.666			-5.606
22105.000			-61.658			-5.605
22204.000			-61.654			-5.605
22304.000			-61.651			-5.605
22405.000			-61.647			-5.604
22504.000			-61.643			-5.604
22603.000			-61.639			-5.604
22705.000			-61.634			-5.603
22804.000			-61.631			-5.603
22904.000			-61.625			-5.602
23005.000			-61.620			-5.602
23104.000			-61.616			-5.601
23204.000			-61.613			-5.601
23304.000			-61.610			-5.601
23404.000			-61.606			-5.601
23504.000			-61.601			-5.600
23605.000			-61.594			-5.599
23704.000			-61.590			-5.599
23804.000			-61.587			-5.599
23905.000			-61.584			-5.599
24003.000			-61.580			-5.598
24104.000			-61.576			-5.598
24205.000			-61.573			-5.598
24304.000			-61.566			-5.597
24405.000			-61.562			-5.597
24504.000			-61.559			-5.596
24604.000			-61.555			-5.596
24704.000			-61.552			-5.596
24804.000			-61.548			-5.595
24904.000			-61.544			-5.595
25005.000			-61.538			-5.594
25104.000			-61.534			-5.594
25203.000			-61.531			-5.594
25305.000			-61.527			-5.593
25404.000			-61.524			-5.593
25504.000			-61.522			-5.593
25605.000			-61.518			-5.593
25704.000			-61.514			-5.592
25804.000			-61.507			-5.592
25904.000			-61.505			-5.591
26004.000			-61.501			-5.591
26104.000			-61.497			-5.591
26205.000			-61.494			-5.590
26304.000			-61.491			-5.590
26404.000			-61.488			-5.590
26505.000			-61.481			-5.589
26603.000			-61.478			-5.589
26704.000			-61.475			-5.589
26805.000			-61.471			-5.588
26904.000			-61.468			-5.588
27004.000			-61.465			-5.588
27105.000			-61.461			-5.587
27204.000			-61.455			-5.587
27303.000			-61.451			-5.586
27405.000			-61.448			-5.586
27504.000			-61.446			-5.586
27605.000			-61.442			-5.586
27704.000			-61.440			-5.585
27804.000			-61.436			-5.585
27905.000			-61.430			-5.585
28003.000			-61.427			-5.584
28104.000			-61.423			-5.584
28205.000			-61.421			-5.584
28304.000			-61.417			-5.583
28404.000			-61.414			-5.583
28505.000			-61.412			-5.583
28604.000			-61.408			-5.583
28703.000			-61.403			-5.582
28805.000			-61.399			-5.582
28904.000			-61.396			-5.581
29004.000			-61.392			-5.581
29105.000			-61.389			-5.581
29204.000			-61.387			-5.581
29304.000			-61.384			-5.580
29404.000			-61.380			-5.580
29504.000			-61.377			-5.580
29604.000			-61.373			-5.579
29705.000			-61.370			-5.579
29804.000			-61.367			-5.579
29904.000			-61.363			-5.578
30005.000			-61.361			-5.578
30103.000			-61.355			-5.578
30204.000			-61.352			-5.577
30305.000			-61.349			-5.577
30404.000			-61.347			-5.577
30504.000			-61.343			-5.577
30603.000			-61.341			-5.576
30704.000			-61.338			-5.576
30805.000			-61.332			-5.576
30904.000			-61.329			-5.575
31004.000			-61.327			-5.575
31105.000			-61.324			-5.575
31204.000			-61.322			-5.575
31303.000			-61.319			-5.574
31405.000			-61.316			-5.574
31504.000			-61.313			-5.574
31604.000			-61.307			-5.573
31705.000			-61.303			-5.573
31804.000			-61.301			-5.573
31904.000			-61.299			-5.573
32004.000			-61.295			-5.572
32104.000			-61.293			-5.572
32204.000			-61.290			-5.572
32305.000			-61.285			-5.571
32404.000			-61.282			-5.571
32503.000			-61.279			-5.571
32605.000			-61.277			-5.571
32704.000			-61.275			-5.570
32804.000			-61.273			-5.570
32905.000			-61.269			-5.570
33004.000			-61.263			-5.569
33104.000			-61.260			-5.569
33204.000			-61.257			-5.569
33304.000			-61.255			-5.569
33404.000			-61.254			-5.569
33505.000			-61.251			-5.568
33604.000			-61.247			-5.568
33704.000			-61.242			-5.567
33805.000			-61.240			-5.567
33903.000			-61.237			-5.567
34005.000			-61.235			-5.567
34104.000			-61.232			-5.567
34204.000			-61.230			-5.566
34305.000			-61.227			-5.566
34404.000			-61.224			-5.566
34504.000			-61.221			-5.566
34604.000			-61.217			-5.565
34704.000			-61.214			-5.565
34804.000			-61.212			-5.565
34905.000			-61.210			-5.565
35004.000			-61.208			-5.564
35103.000			-61.204			-5.564
35205.000			-61.199			-5.564
35304.000			-61.197			-5.563
35404.000			-61.194			-5.563
35505.000			-61.190			-5.563
35604.000			-61.188			-5.563
35704.000			-61.186			-5.562
35804.000			-61.184			-5.562
35904.000			-61.179			-5.562
36003.000			-61.176			-5.561
36105.000			-61.174			-5.561
36204.000			-61.172			-5.561
36304.000			-61.170			-5.561
36405.000			-61.167			-5.561
36503.000			-61.164			-5.560
36604.000			-61.160			-5.560
36705.000			-61.158			-5.560
36804.000			-61.155			-5.560
36904.000			-61.153			-5.559
37004.000			-61.150			-5.559
37104.000			-61.147			-5.559
37203.000			-61.145			-5.559
37304.000			-61.142			-5.558
37404.000			-61.139			-5.558
37505.000			-61.136			-5.558
37604.000			-61.134			-5.558
37704.000			-61.131			-5.557
37805.000			-61.129			-5.557
37903.000			-61.126			-5.557
38004.000			-61.125			-5.557
38105.000			-61.119			-5.556
38204.000			-61.117			-5.556
38304.000			-61.115			-5.556
38405.000			-61.112			-5.556
38504.000			-61.110			-5.555
38603.000			-61.108			-5.555
38705.000			-61.106			-5.555
38804.000			-61.101			-5.555
38904.000			-61.099			-5.554
39005.000			-61.097			-5.554
39104.000			-61.094			-5.554
39204.000			-61.091			-5.554
39304.000			-61.090			-5.554
39404.000			-61.088			-5.553
39504.000			-61.084			-5.553
39605.000			-61.080			-5.553
39704.000			-61.079			-5.553
39803.000			-61.077			-5.552
39905.000			-61.076			-5.552
40004.000			-61.073			-5.552
40104.000			-61.070			-5.552
40205.000			-61.064			-5.551
40304.000			-61.062			-5.551
40405.000			-61.061			-5.551
40503.000			-61.059			-5.551
40604.000			-61.056			-5.551
40705.000			-61.055			-5.550
40804.000			-61.052			-5.550
40904.000			-61.049			-5.550
41005.000			-61.045			-5.550
41104.000			-61.044			-5.549
41203.000			-61.042			-5.549
41305.000			-61.039			-5.549
41404.000			-61.038			-5.549
41504.000			-61.035			-5.549
41605.000			-61.032			-5.548
41704.000			-61.029			-5.548
41804.000			-61.028			-5.548
41904.000			-61.025			-5.548
42004.000			-61.022			-5.547
42104.000			-61.019			-5.547
42205.000			-61.018			-5.547
42304.000			-61.016			-5.547
42403.000			-61.011			-5.546
42505.000			-61.009			-5.546
42604.000			-61.007			-5.546
42704.000			-61.004			-5.546
42805.000			-61.002			-5.546
42904.000			-61.001			-5.546
43004.000			-60.999			-5.545
43104.000			-60.995			-5.545
43204.000			-60.993			-5.545
43304.000			-60.991			-5.545
43404.000			-60.989			-5.544
43504.000			-60.988			-5.544
43605.000			-60.984			-5.544
43704.000			-60.982			-5.544
43803.000			-60.980			-5.544
43905.000			-60.976			-5.543
44004.000			-60.974			-5.543
44104.000			-60.973			-5.543
44205.000			-60.971			-5.543
44304.000			-60.969			-5.543
44404.000			-60.966			-5.542
44504.000			-60.964			-5.542
44604.000			-60.960			-5.542
44704.000			-60.958			-5.542
44805.000			-60.956			-5.541
44904.000			-60.954			-5.541
45004.000			-60.951			-5.541
45105.000			-60.950			-5.541
45203.000			-60.949			-5.541
45304.000			-60.944			-5.540
45405.000			-60.942			-5.540
45504.000			-60.941			-5.540
45604.000			-60.938			-5.540
45705.000			-60.936			-5.540
45804.000			-60.935			-5.540
45903.000			-60.933			-5.539
46005.000			-60.928			-5.539
46104.000			-60.926			-5.539
46204.000			-60.924			-5.539
46305.000			-60.922			-5.538
46404.000			-60.920			-5.538
46504.000			-60.918			-5.538
46603.000			-60.917			-5.538
46704.000			-60.915			-5.538
46805.000			-60.911			-5.537
46904.000			-60.910			-5.537
47004.000			-60.908			-5.537
47105.000			-60.906			-5.537
47204.000			-60.904			-5.537
47303.000			-60.902			-5.537
47405.000			-60.900			-5.536
47504.000			-60.895			-5.536
47604.000			-60.893			-5.536
47705.000			-60.892			-5.536
47804.000			-60.890			-5.535
47904.000			-60.888			-5.535
48004.000			-60.887			-5.535
48104.000			-60.884			-5.535
48204.000			-60.882			-5.535
48305.000			-60.880			-5.535
48404.000			-60.876			-5.534
48504.000			-60.874			-5.534
48605.000			-60.873			-5.534
48703.000			-60.871			-5.534
48804.000			-60.869			-5.534
48905.000			-60.866			-5.533
49004.000			-60.863			-5.533
49104.000			-60.861			-5.533
49205.000			-60.860			-5.533
49304.000			-60.859			-5.533
49403.000			-60.856			-5.532
49505.000			-60.854			-5.532
49604.000			-60.852			-5.532
49704.000			-60.850			-5.532
49805.000			-60.848			-5.532
49904.000			-60.846			-5.531
50005.000			-60.845			-5.531
50103.000			-60.843			-5.531
50204.000			-60.840			-5.531
50305.000			-60.838			-5.531
50404.000			-60.835			-5.530
50504.000			-60.833			-5.530
50605.000			-60.831			-5.530
50704.000			-60.830			-5.530
50803.000			-60.827			-5.530
50905.000			-60.826			-5.530
51004.000			-60.824			-5.529
51104.000			-60.820			-5.529
51205.000			-60.819			-5.529
51303.000			-60.817			-5.529
51404.000			-60.815			-5.529
51505.000			-60.814			-5.529
51604.000			-60.812			-5.528
51704.000			-60.811			-5.528
51805.000			-60.807			-5.528
51904.000			-60.805			-5.528
52003.000			-60.802			-5.527
52105.000			-60.801			-5.527
52204.000			-60.799			-5.527
52304.000			-60.797			-5.527
52405.000			-60.796			-5.527
52504.000			-60.794			-5.527
52604.000			-60.790			-5.526
52704.000			-60.788			-5.526
52804.000			-60.787			-5.526
52904.000			-60.787			-5.526
53004.000			-60.785			-5.526
53104.000			-60.783			-5.526
53205.000			-60.781			-5.526
53304.000			-60.778			-5.525
53403.000			-60.775			-5.525
53505.000			-60.773			-5.525
53604.000			-60.772			-5.525
53704.000			-60.770			-5.525
53805.000			-60.768			-5.524
53904.000			-60.768			-5.524
54004.000			-60.765			-5.524
54104.000			-60.763			-5.524
54204.000			-60.761			-5.524
54304.000			-60.759			-5.524
54405.000			-60.757			-5.523
54504.000			-60.755			-5.523
54604.000			-60.754			-5.523
54705.000			-60.750			-5.523
54803.000			-60.749			-5.523
54904.000			-60.747			-5.522
55005.000			-60.745			-5.522
55104.000			-60.744			-5.522
55204.000			-60.743			-5.522
55305.000			-60.741			-5.522
55404.000			-60.739			-5.522
55503.000			-60.737			-5.522
55605.000			-60.735			-5.521
55704.000			-60.733			-5.521
55804.000			-60.731			-5.521
55905.000			-60.729			-5.521
56004.000			-60.728			-5.521
56104.000			-60.725			-5.520
56203.000			-60.723			-5.520
56304.000			-60.721			-5.520
56405.000			-60.720			-5.520
56504.000			-60.719			-5.520
56604.000			-60.717			-5.520
56705.000			-60.714			-5.519
56804.000			-60.713			-5.519
56903.000			-60.709			-5.519
57005.000			-60.707			-5.519
57104.000			-60.706			-5.519
57204.000			-60.705			-5.519
57305.000			-60.703			-5.518
57403.000			-60.701			-5.518
57504.000			-60.699			-5.518
57605.000			-60.699			-5.518
57704.000			-60.697			-5.518
57804.000			-60.694			-5.518
57905.000			-60.692			-5.517
58004.000			-60.690			-5.517
58104.000			-60.689			-5.517
58205.000			-60.687			-5.517
58303.000			-60.686			-5.517
58404.000			-60.683			-5.517
58505.000			-60.682			-5.517
58604.000			-60.681			-5.516
58704.000			-60.678			-5.516
58805.000			-60.676			-5.516
58904.000			-60.675			-5.516
59003.000			-60.674			-5.516
59105.000			-60.671			-5.516
59204.000			-60.669			-5.515
59304.000			-60.667			-5.515
59405.000			-60.665			-5.515
59504.000			-60.663			-5.515
59605.000			-60.662			-5.515
59703.000			-60.661			-5.515
59804.000			-60.658			-5.514
59905.000			-60.656			-5.514
60004.000			-60.655			-5.514
60104.000			-60.654			-5.514
60205.000			-60.652			-5.514
60304.000			-60.650			-5.514
60403.000			-60.648			-5.513
60505.000			-60.645			-5.513
60604.000			-60.644			-5.513
60704.000			-60.643			-5.513
60805.000			-60.641			-5.513
60904.000			-60.639			-5.513
61004.000			-60.638			-5.513
61104.000			-60.637			-5.512
61204.000			-60.636			-5.512
61304.000			-60.632			-5.512
61405.000			-60.631			-5.512
61504.000			-60.630			-5.512
61603.000			-60.628			-5.512
61705.000			-60.626			-5.511
61804.000			-60.624			-5.511
61904.000			-60.623			-5.511
62005.000			-60.621			-5.511
62104.000			-60.620			-5.511
62204.000			-60.617			-5.511
62304.000			-60.615			-5.510
62404.000			-60.613			-5.510
62504.000			-60.613			-5.510
62604.000			-60.612			-5.510
62704.000			-60.607			-5.510
62805.000			-60.607			-5.510
62904.000			-60.606			-5.510
63003.000			-60.605			-5.510
63105.000			-60.603			-5.509
63204.000			-60.601			-5.509
63304.000			-60.600			-5.509
63405.000			-60.596			-5.509
63504.000			-60.595			-5.509
63604.000			-60.593			-5.508
63704.000			-60.593			-5.508
63804.000			-60.591			-5.508
63904.000			-60.590			-5.508
64005.000			-60.589			-5.508
64104.000			-60.586			-5.508
64204.000			-60.583			-5.508
64305.000			-60.582			-5.507
64403.000			-60.581			-5.507
64504.000			-60.580			-5.507
64605.000			-60.577			-5.507
64704.000			-60.576			-5.507
64804.000			-60.575			-5.507
64904.000			-60.572			-5.507
65004.000			-60.571			-5.506
65103.000			-60.569			-5.506
65205.000			-60.568			-5.506
65304.000			-60.567			-5.506
65404.000			-60.566			-5.506
65505.000			-60.565			-5.506
65604.000			-60.561			-5.506
65704.000			-60.560			-5.505
65803.000			-60.559			-5.505
65904.000			-60.558			-5.505
66005.000			-60.557			-5.505
66104.000			-60.555			-5.505
66204.000			-60.553			-5.505
66305.000			-60.550			-5.505
66404.000			-60.549			-5.504
66503.000			-60.547			-5.504
66605.000			-60.546			-5.504
66704.000			-60.544			-5.504
66804.000			-60.542			-5.504
66905.000			-60.541			-5.504
67004.000			-60.540			-5.504
67104.000			-60.537			-5.503
67204.000			-60.536			-5.503
67304.000			-60.536			-5.503
67404.000			-60.534			-5.503
67505.000			-60.532			-5.503
67604.000			-60.531			-5.503
67704.000			-60.529			-5.503
67805.000			-60.527			-5.502
67903.000			-60.526			-5.502
68004.000			-60.524			-5.502
68105.000			-60.523			-5.502
68204.000			-60.521			-5.502
68304.000			-60.520			-5.502
68405.000			-60.519			-5.502
68504.000			-60.516			-5.501
68603.000			-60.515			-5.501
68705.000			-60.513			-5.501
68804.000			-60.512			-5.501
68904.000			-60.511			-5.501
69005.000			-60.509			-5.501
69104.000			-60.508			-5.501
69205.000			-60.505			-5.500
69303.000			-60.503			-5.500
69404.000			-60.501			-5.500
69505.000			-60.501			-5.500
69604.000			-60.500			-5.500
69704.000			-60.499			-5.500
69805.000			-60.497			-5.500
69904.000			-60.496			-5.500
70003.000			-60.495			-5.500
70105.000			-60.493			-5.499
70204.000			-60.492			-5.499
70304.000			-60.490			-5.499
70405.000			-60.488			-5.499
70504.000			-60.487			-5.499
70604.000			-60.486			-5.499
70704.000			-60.484			-5.499
70804.000			-60.482			-5.498
70904.000			-60.480			-5.498
71005.000			-60.480			-5.498
71104.000			-60.478			-5.498
71204.000			-60.475			-5.498
71305.000			-60.475			-5.498
71403.000			-60.472			-5.497
71504.000			-60.470			-5.497
71605.000			-60.469			-5.497
71704.000			-60.468			-5.497
71804.000			-60.467			-5.497
71905.000			-60.466			-5.497
72004.000			-60.465			-5.497
72103.000			-60.461			-5.496
72205.000			-60.460			-5.496
72304.000			-60.459			-5.496
72405.000			-60.457			-5.496
72504.000			-60.457			-5.496
72604.000			-60.456			-5.496
72705.000			-60.455			-5.496
72803.000			-60.453			-5.496
72904.000			-60.450			-5.495
73005.000			-60.449			-5.495
73104.000			-60.447			-5.495
73204.000			-60.446			-5.495
73305.000			-60.445			-5.495
73404.000			-60.444			-5.495
73503.000			-60.442			-5.495
73605.000			-60.440			-5.495
73704.000			-60.439			-5.494
73804.000			-60.438			-5.494
73905.000			-60.436			-5.494
74004.000			-60.434			-5.494
74104.000			-60.432			-5.494
74204.000			-60.432			-5.494
74304.000			-60.431			-5.494
74404.000			-60.430			-5.494
74505.000			-60.428			-5.493
74604.000			-60.427			-5.493
74703.000			-60.425			-5.493
74805.000			-60.424			-5.493
74904.000			-60.423			-5.493
75004.000			-60.420			-5.493
75105.000			-60.418			-5.493
75204.000			-60.417			-5.492
75304.000			-60.416			-5.492
75403.000			-60.414			-5.492
75504.000			-60.414			-5.492
75605.000			-60.413			-5.492
75704.000			-60.412			-5.492
75804.000			-60.408			-5.492
75905.000			-60.407			-5.492
76004.000			-60.405			-5.491
76103.000			-60.405			-5.491
76205.000			-60.403			-5.491
76304.000			-60.401			-5.491
76404.000			-60.400			-5.491
76505.000			-60.400			-5.491
76604.000			-60.398			-5.491
76704.000			-60.397			-5.491
76804.000			-60.395			-5.490
76904.000			-60.394			-5.490
77003.000			-60.393			-5.490
77105.000			-60.392			-5.490
77204.000			-60.390			-5.490
77304.000			-60.389			-5.490
77405.000			-60.387			-5.490
77504.000			-60.385			-5.490
77604.000			-60.384			-5.489
77704.000			-60.384			-5.489
77804.000			-60.383			-5.489
77904.000			-60.380			-5.489
78005.000			-60.379			-5.489
78104.000			-60.377			-5.489
78204.000			-60.375			-5.489
78305.000			-60.374			-5.489
78403.000			-60.374			-5.489
78504.000			-60.374			-5.489
78605.000			-60.371			-5.488
78704.000			-60.369			-5.488
78805.000			-60.368			-5.488
78904.000			-60.367			-5.488
79004.000			-60.366			-5.488
79104.000			-60.364			-5.488
79204.000			-60.362			-5.487
79304.000			-60.362			-5.487
79405.000			-60.359			-5.487
79504.000			-60.358			-5.487
79604.000			-60.358			-5.487
79705.000			-60.358			-5.487
79803.000			-60.356			-5.487
79904.000			-60.353			-5.487
80005.000			-60.352			-5.487
80104.000			-60.350			-5.486
80204.000			-60.349			-5.486
80305.000			-60.349			-5.486
80404.000			-60.347			-5.486
80503.000			-60.346			-5.486
80605.000			-60.344			-5.486
80704.000			-60.343			-5.486
80804.000			-60.341			-5.486
80905.000			-60.341			-5.486
81004.000			-60.339			-5.485
81104.000			-60.337			-5.485
81204.000			-60.336			-5.485
81304.000			-60.335			-5.485
81404.000			-60.334			-5.485
81505.000			-60.333			-5.485
81604.000			-60.331			-5.485
81703.000			-60.329			-5.484
81805.000			-60.328			-5.484
81904.000			-60.327			-5.484
82005.000			-60.326			-5.484
82104.000			-60.324			-5.484
82204.000			-60.323			-5.484
82305.000			-60.321			-5.484
82403.000			-60.321			-5.484
82504.000			-60.319			-5.484
82605.000			-60.317			-5.483
82704.000			-60.317			-5.483
82804.000			-60.316			-5.483
82905.000			-60.315			-5.483
83004.000			-60.312			-5.483
83103.000			-60.311			-5.483
83205.000			-60.309			-5.483
83304.000			-60.308			-5.483
83404.000			-60.307			-5.482
83505.000			-60.307			-5.482
83604.000			-60.305			-5.482
83704.000			-60.303			-5.482
83804.000			-60.302			-5.482
83904.000			-60.300			-5.482
84004.000			-60.299			-5.482
84105.000			-60.299			-5.482
84204.000			-60.298			-5.482
84304.000			-60.296			-5.481
84405.000			-60.295			-5.481
84503.000			-60.293			-5.481
84604.000			-60.292			-5.481
84705.000			-60.291			-5.481
84804.000			-60.291			-5.481
84904.000			-60.290			-5.481
85004.000			-60.288			-5.481
85104.000			-60.286			-5.481
85203.000			-60.285			-5.480
85304.000			-60.284			-5.480
85404.000			-60.283			-5.480
85505.000			-60.282			-5.480
85604.000			-60.281			-5.480
85704.000			-60.279			-5.480
85805.000			-60.278			-5.480
85903.000			-60.276			-5.480
86004.000			-60.274			-5.479
86105.000			-60.274			-5.479
86204.000			-60.273			-5.479
86304.000			-60.272			-5.479
86405.000			-60.271			-5.479
86504.000			-60.270			-5.479
86603.000			-60.268			-5.479
86705.000			-60.267			-5.479
86804.000			-60.266			-5.479
86904.000			-60.264			-5.479
87005.000			-60.263			-5.478
87104.000			-60.262			-5.478
87204.000			-60.261			-5.478
87304.000			-60.259			-5.478
87404.000			-60.258			-5.478
87503.000			-60.257			-5.478
87605.000			-60.255			-5.478
87704.000			-60.255			-5.478
87804.000			-60.253			-5.478
87905.000			-60.252			-5.477
88004.000			-60.250			-5.477
88104.000			-60.249			-5.477
88203.000			-60.248			-5.477
88304.000			-60.246			-5.477
88405.000			-60.245			-5.477
88504.000			-60.244			-5.477
88604.000			-60.244			-5.477
88705.000			-60.244			-5.477
88804.000			-60.241			-5.476
88903.000			-60.239			-5.476
89005.000			-60.238			-5.476
89104.000			-60.237			-5.476
89204.000			-60.236			-5.476
89305.000			-60.235			-5.476
89404.000			-60.234			-5.476
89504.000			-60.234			-5.476
89604.000			-60.231			-5.476
89704.000			-60.230			-5.475
89804.000			-60.229			-5.475
89905.000			-60.228			-5.475
90004.000			-60.228			-5.475
90104.000			-60.226			-5.475
90205.000			-60.224			-5.475
90304.000			-60.223			-5.475
90404.000			-60.222			-5.475
90505.000			-60.220			-5.475
90604.000			-60.219			-5.474
90704.000			-60.218			-5.474
90804.000			-60.216			-5.474
90904.000			-60.216			-5.474
91003.000			-60.215			-5.474
91105.000			-60.215			-5.474
91204.000			-60.213			-5.474
91304.000			-60.211			-5.474
91405.000			-60.210			-5.474
91503.000			-60.209			-5.474
91605.000			-60.208			-5.473
91704.000			-60.206			-5.473
91804.000			-60.204			-5.473
91905.000			-60.203			-5.473
92004.000			-60.203			-5.473
92104.000			-60.201			-5.473
92204.000			-60.201			-5.473
92304.000			-60.199			-5.473
92404.000			-60.198			-5.473
92505.000			-60.197			-5.472
92604.000			-60.195			-5.472
92704.000			-60.193			-5.472
92805.000			-60.192			-5.472
92903.000			-60.191			-5.472
93004.000			-60.190			-5.472
93105.000			-60.190			-5.472
93204.000			-60.189			-5.472
93304.000			-60.188			-5.472
93405.000			-60.185			-5.471
93504.000			-60.184			-5.471
93603.000			-60.184			-5.471
93705.000			-60.184			-5.471
93804.000			-60.183			-5.471
93904.000			-60.181			-5.471
94005.000			-60.180			-5.471
94104.000			-60.180			-5.471
94204.000			-60.178			-5.471
94304.000			-60.176			-5.471
94404.000			-60.175			-5.470
94504.000			-60.174			-5.470
94604.000			-60.172			-5.470
94704.000			-60.171			-5.470
94805.000			-60.171			-5.470
94904.000			-60.170			-5.470
95003.000			-60.169			-5.470
95105.000			-60.168			-5.470
95204.000			-60.167			-5.470
95304.000			-60.165			-5.470
95405.000			-60.164			-5.469
95504.000			-60.163			-5.469
95604.000			-60.162			-5.469
95704.000			-60.160			-5.469
95804.000			-60.159			-5.469
95904.000			-60.158			-5.469
96005.000			-60.157			-5.469
96104.000			-60.155			-5.469
96204.000			-60.154			-5.469
96305.000			-60.153			-5.468
96403.000			-60.152			-5.468
96504.000			-60.151			-5.468
96605.000			-60.151			-5.468
96704.000			-60.150			-5.468
96804.000			-60.148			-5.468
96905.000			-60.147			-5.468
97004.000			-60.146			-5.468
97103.000			-60.145			-5.468
97205.000			-60.143			-5.468
97304.000			-60.143			-5.468
97404.000			-60.141			-5.467
97505.000			-60.140			-5.467
97604.000			-60.138			-5.467
97704.000			-60.137			-5.467
97803.000			-60.136			-5.467
97904.000			-60.135			-5.467
98005.000			-60.134			-5.467
98104.000			-60.133			-5.467
98204.000			-60.134			-5.467
98305.000			-60.132			-5.467
98404.000			-60.130			-5.466
98503.000			-60.129			-5.466
98605.000			-60.128			-5.466
98704.000			-60.127			-5.466
98804.000			-60.126			-5.466
98905.000			-60.125			-5.466
99004.000			-60.122			-5.466
99104.000			-60.122			-5.466
99204.000			-60.122			-5.466
99304.000			-60.121			-5.466
99404.000			-60.120			-5.465
99505.000			-60.119			-5.465
99604.000			-60.117			-5.465
99704.000			-60.114			-5.465
99805.000			-60.113			-5.465
99903.000			-60.113			-5.465
100004.000			-60.112			-5.465
100105.000			-60.112			-5.465
100204.000			-60.110			-5.465
100304.000			-60.109			-5.464
100404.000			-60.108			-5.464
100504.000			-60.107			-5.464
100604.000			-60.106			-5.464
100705.000			-60.105			-5.464
100804.000			-60.103			-5.464
100904.000			-60.103			-5.464
101005.000			-60.103			-5.464
101103.000			-60.102			-5.464
101205.000			-60.099			-5.464
101304.000			-60.099			-5.464
101404.000			-60.098			-5.463
101505.000			-60.097			-5.463
101604.000			-60.097			-5.463
101704.000			-60.096			-5.463
101804.000			-60.094			-5.463
101904.000			-60.092			-5.463
102003.000			-60.091			-5.463
102105.000			-60.090			-5.463
102204.000			-60.088			-5.463
102304.000			-60.088			-5.463
102405.000			-60.087			-5.462
102503.000			-60.087			-5.462
102604.000			-60.084			-5.462
102704.000			-60.083			-5.462
102804.000			-60.083			-5.462
102904.000			-60.083			-5.462
103005.000			-60.082			-5.462
103104.000			-60.081			-5.462
103204.000			-60.079			-5.462
103305.000			-60.077			-5.462
103403.000			-60.077			-5.462
103504.000			-60.076			-5.461
103605.000			-60.074			-5.461
103704.000			-60.073			-5.461
103804.000			-60.073			-5.461
103905.000			-60.072			-5.461
104004.000			-60.071			-5.461
104103.000			-60.069			-5.461
104205.000			-60.068			-5.461
104304.000			-60.067			-5.461
104405.000			-60.066			-5.461
104504.000			-60.065			-5.460
104604.000			-60.064			-5.460
104705.000			-60.063			-5.460
104803.000			-60.062			-5.460
104904.000			-60.061			-5.460
105005.000			-60.059			-5.460
105104.000			-60.058			-5.460
105204.000			-60.057			-5.460
105305.000			-60.057			-5.460
105404.000			-60.056			-5.460
105503.000			-60.055			-5.460
105605.000			-60.054			-5.459
105704.000			-60.053			-5.459
105804.000			-60.052			-5.459
105905.000			-60.051			-5.459
106004.000			-60.051			-5.459
106104.000			-60.049			-5.459
106204.000			-60.047			-5.459
106304.000			-60.046			-5.459
106404.000			-60.046			-5.459
106505.000			-60.045			-5.459
106604.000			-60.044			-5.459
106704.000			-60.043			-5.458
106805.000			-60.043			-5.458
106903.000			-60.041			-5.458
107004.000			-60.039			-5.458
107105.000			-60.038			-5.458
107204.000			-60.038			-5.458
107304.000			-60.037			-5.458
107404.000			-60.035			-5.458
107504.000			-60.035			-5.458
107603.000			-60.033			-5.458
107704.000			-60.030			-5.457
107804.000			-60.030			-5.457
107905.000			-60.030			-5.457
108004.000			-60.029			-5.457
108104.000			-60.028			-5.457
108205.000			-60.028			-5.457
108303.000			-60.027			-5.457
108404.000			-60.025			-5.457
108505.000			-60.024			-5.457
108604.000			-60.023			-5.457
108704.000			-60.023			-5.457
108805.000			-60.022			-5.457
108904.000			-60.020			-5.456
109003.000			-60.019			-5.456
109105.000			-60.018			-5.456
109204.000			-60.017			-5.456
109304.000			-60.016			-5.456
109405.000			-60.015			-5.456
109504.000			-60.015			-5.456
109604.000			-60.013			-5.456
109704.000			-60.012			-5.456
109804.000			-60.011			-5.456
109904.000			-60.008			-5.455
110005.000			-60.008			-5.455
110104.000			-60.007			-5.455
110204.000			-60.007			-5.455
110305.000			-60.008			-5.455
110403.000			-60.006			-5.455
110504.000			-60.004			-5.455
110605.000			-60.003			-5.455
110704.000			-60.001			-5.455
110805.000			-60.000			-5.455
110904.000			-60.000			-5.455
111004.000			-59.999			-5.454
111104.000			-59.998			-5.454
111204.000			-59.997			-5.454
111304.000			-59.995			-5.454
111405.000			-59.995			-5.454
111504.000			-59.995			-5.454
111604.000			-59.994			-5.454
111705.000			-59.992			-5.454
111803.000			-59.992			-5.454
111904.000			-59.991			-5.454
112004.000			-59.989			-5.454
112104.000			-59.988			-5.453
112204.000			-59.988			-5.453
112305.000			-59.986			-5.453
112404.000			-59.986			-5.453
112504.000			-59.985			-5.453
112605.000			-59.983			-5.453
112703.000			-59.982			-5.453
112804.000			-59.980			-5.453
112905.000			-59.980			-5.453
113004.000			-59.980			-5.453
113104.000			-59.979			-5.453
113205.000			-59.979			-5.453
113304.000			-59.977			-5.452
113404.000			-59.976			-5.452
113505.000			-59.975			-5.452
113603.000			-59.974			-5.452
113704.000			-59.973			-5.452
113805.000			-59.973			-5.452
113904.000			-59.972			-5.452
114005.000			-59.971			-5.452
114104.000			-59.970			-5.452
114204.000			-59.968			-5.452
114304.000			-59.967			-5.452
114404.000			-59.965			-5.451
114503.000			-59.965			-5.451
114605.000			-59.965			-5.451
114704.000			-59.963			-5.451
114804.000			-59.962			-5.451
114905.000			-59.961			-5.451
115004.000			-59.961			-5.451
115104.000			-59.961			-5.451
115204.000			-59.959			-5.451
115304.000			-59.958			-5.451
115404.000			-59.957			-5.451
115505.000			-59.956			-5.451
115604.000			-59.955			-5.450
115704.000			-59.954			-5.450
115805.000			-59.952			-5.450
115904.000			-59.952			-5.450
116004.000			-59.952			-5.450
116104.000			-59.950			-5.450
116204.000			-59.949			-5.450
116304.000			-59.949			-5.450
116405.000			-59.948			-5.450
116504.000			-59.946			-5.450
116604.000			-59.945			-5.450
116705.000			-59.944			-5.449
116803.000			-59.943			-5.449
116904.000			-59.943			-5.449
117005.000			-59.942			-5.449
117104.000			-59.941			-5.449
117205.000			-59.940			-5.449
117304.000			-59.940			-5.449
117404.000			-59.938			-5.449
117505.000			-59.936			-5.449
117604.000			-59.936			-5.449
117703.000			-59.936			-5.449
117805.000			-59.935			-5.449
117904.000			-59.934			-5.449
118004.000			-59.932			-5.448
118105.000			-59.932			-5.448
118204.000			-59.932			-5.448
118304.000			-59.930			-5.448
118404.000			-59.929			-5.448
118504.000			-59.928			-5.448
118603.000			-59.926			-5.448
118705.000			-59.925			-5.448
118804.000			-59.925			-5.448
118904.000			-59.924			-5.448
119005.000			-59.923			-5.448
119104.000			-59.924			-5.448
119204.000			-59.922			-5.447
119304.000			-59.921			-5.447
119404.000			-59.920			-5.447
119504.000			-59.919			-5.447
119605.000			-59.918			-5.447
119704.000			-59.916			-5.447
119804.000			-59.916			-5.447
119905.000			-59.915			-5.447
120004.000			-59.914			-5.447
120104.000			-59.913			-5.447
120203.000			-59.913			-5.447
120304.000			-59.912			-5.447
120405.000			-59.910			-5.446
120504.000			-59.909			-5.446
120604.000			-59.909			-5.446
120705.000			-59.908			-5.446
120804.000			-59.906			-5.446
120903.000			-59.905			-5.446
121005.000			-59.904			-5.446
121104.000			-59.904			-5.446
121204.000			-59.903			-5.446
121305.000			-59.903			-5.446
121404.000			-59.902			-5.446
121504.000			-59.900			-5.445
121605.000			-59.900			-5.445
121704.000			-59.898			-5.445
121803.000			-59.898			-5.445
121905.000			-59.898			-5.445
122004.000			-59.897			-5.445
122104.000			-59.895			-5.445
122205.000			-59.893			-5.445
122304.000			-59.893			-5.445
122404.000			-59.893			-5.445
122504.000			-59.893			-5.445
122604.000			-59.892			-5.445
122703.000			-59.891			-5.445
122805.000			-59.889			-5.444
122904.000			-59.887			-5.444
123004.000			-59.886			-5.444
123105.000			-59.885			-5.444
123204.000			-59.884			-5.444
123304.000			-59.883			-5.444
123403.000			-59.883			-5.444
123504.000			-59.882			-5.444
123605.000			-59.881			-5.444
123704.000			-59.880			-5.444
123804.000			-59.880			-5.444
123905.000			-59.879			-5.444
124004.000			-59.877			-5.443
124104.000			-59.877			-5.443
124205.000			-59.875			-5.443
124303.000			-59.875			-5.443
124404.000			-59.873			-5.443
124505.000			-59.873			-5.443
124604.000			-59.872			-5.443
124704.000			-59.872			-5.443
124805.000			-59.871			-5.443
124904.000			-59.870			-5.443
125004.000			-59.869			-5.443
125105.000			-59.868			-5.443
125203.000			-59.867			-5.442
125304.000			-59.867			-5.442
125405.000			-59.866			-5.442
125504.000			-59.865			-5.442
125604.000			-59.863			-5.442
125705.000			-59.862			-5.442
125804.000			-59.861			-5.442
125903.000			-59.860			-5.442
126005.000			-59.860			-5.442
126104.000			-59.860			-5.442
126204.000			-59.860			-5.442
126305.000			-59.859			-5.442
126404.000			-59.857			-5.442
126504.000			-59.856			-5.441
126604.000			-59.855			-5.441
126704.000			-59.855			-5.441
126803.000			-59.854			-5.441
126904.000			-59.854			-5.441
127004.000			-59.853			-5.441
127105.000			-59.851			-5.441
127204.000			-59.851			-5.441
127304.000			-59.849			-5.441
127405.000			-59.849			-5.441
127504.000			-59.848			-5.441
127604.000			-59.847			-5.441
127704.000			-59.846			-5.441
127804.000			-59.845			-5.440
127904.000			-59.845			-5.440
128005.000			-59.843			-5.440
128104.000			-59.841			-5.440
128204.000			-59.841			-5.440
128305.000			-59.841			-5.440
128403.000			-59.841			-5.440
128504.000			-59.840			-5.440
128604.000			-59.839			-5.440
128704.000			-59.838			-5.440
128804.000			-59.837			-5.440
128905.000			-59.835			-5.440
129004.000			-59.835			-5.440
129104.000			-59.835			-5.440
129205.000			-59.834			-5.439
129303.000			-59.833			-5.439
129404.000			-59.832			-5.439
129505.000			-59.831			-5.439
129604.000			-59.831			-5.439
129704.000			-59.829			-5.439
129804.000			-59.828			-5.439
129904.000			-59.827			-5.439
130005.000			-59.826			-5.439
130104.000			-59.825			-5.439
130203.000			-59.824			-5.439
130305.000			-59.824			-5.439
130404.000			-59.823			-5.438
130504.000			-59.822			-5.438
130605.000			-59.821			-5.438
130704.000			-59.821			-5.438
130804.000			-59.820			-5.438
130904.000			-59.818			-5.438
131004.000			-59.817			-5.438
131104.000			-59.817			-5.438
131205.000			-59.816			-5.438
131304.000			-59.815			-5.438
131404.000			-59.813			-5.438
131505.000			-59.813			-5.438
131604.000			-59.812			-5.437
131704.000			-59.811			-5.437
131804.000			-59.811			-5.437
131904.000			-59.811			-5.437
132004.000			-59.809			-5.437
132105.000			-59.809			-5.437
132204.000			-59.808			-5.437
132304.000			-59.807			-5.437
132405.000			-59.806			-5.437
132503.000			-59.805			-5.437
132604.000			-59.805			-5.437
132704.000			-59.803			-5.437
132804.000			-59.801			-5.436
132904.000			-59.801			-5.436
133004.000			-59.801			-5.436
133104.000			-59.799			-5.436
133205.000			-59.798			-5.436
133304.000			-59.797			-5.436
133404.000			-59.796			-5.436
133505.000			-59.795			-5.436
133603.000			-59.795			-5.436
133704.000			-59.795			-5.436
133805.000			-59.793			-5.436
133904.000			-59.793			-5.436
134004.000			-59.792			-5.436
134105.000			-59.791			-5.436
134204.000			-59.790			-5.435
134304.000			-59.790			-5.435
134405.000			-59.790			-5.435
134503.000			-59.788			-5.435
134604.000			-59.785			-5.435
134704.000			-59.784			-5.435
134804.000			-59.785			-5.435
134904.000			-59.785			-5.435
135005.000			-59.784			-5.435
135104.000			-59.783			-5.435
135204.000			-59.782			-5.435
135305.000			-59.780			-5.435
135403.000			-59.779			-5.434
135504.000			-59.780			-5.435
135604.000			-59.779			-5.434
135704.000			-59.778			-5.434
135804.000			-59.776			-5.434
135905.000			-59.776			-5.434
136004.000			-59.774			-5.434
136104.000			-59.774			-5.434
136205.000			-59.772			-5.434
136304.000			-59.772			-5.434
136405.000			-59.770			-5.434
136503.000			-59.771			-5.434
136604.000			-59.771			-5.434
136704.000			-59.770			-5.434
136804.000			-59.769			-5.434
136904.000			-59.768			-5.433
137005.000			-59.766			-5.433
137104.000			-59.766			-5.433
137204.000			-59.766			-5.433
137305.000			-59.765			-5.433
137404.000			-59.764			-5.433
137504.000			-59.763			-5.433
137604.000			-59.762			-5.433
137704.000			-59.761			-5.433
137804.000			-59.760			-5.433
137905.000			-59.758			-5.433
138004.000			-59.759			-5.433
138104.000			-59.757			-5.432
138205.000			-59.756			-5.432
138304.000			-59.756			-5.432
138404.000			-59.756			-5.432
138504.000			-59.754			-5.432
138604.000			-59.754			-5.432
138703.000			-59.754			-5.432
138805.000			-59.753			-5.432
138904.000			-59.752			-5.432
139004.000			-59.751			-5.432
139105.000			-59.750			-5.432
139204.000			-59.750			-5.432
139304.000			-59.748			-5.432
139404.000			-59.748			-5.432
139504.000			-59.748			-5.432
139603.000			-59.746			-5.431
139704.000			-59.745			-5.431
139804.000			-59.745			-5.431
139905.000			-59.744			-5.431
140004.000			-59.743			-5.431
140104.000			-59.742			-5.431
140205.000			-59.740			-5.431
140304.000			-59.739			-5.431
140404.000			-59.738			-5.431
140504.000			-59.737			-5.431
140604.000			-59.736			-5.431
140703.000			-59.736			-5.431
140805.000			-59.735			-5.430
140904.000			-59.735			-5.430
141004.000			-59.733			-5.430
141105.000			-59.732			-5.430
141204.000			-59.731			-5.430
141304.000			-59.729			-5.430
141404.000			-59.729			-5.430
141504.000			-59.730			-5.430
141603.000			-59.729			-5.430
141705.000			-59.728			-5.430
141804.000			-59.725			-5.430
141904.000			-59.726			-5.430
142005.000			-59.727			-5.430
142104.000			-59.725			-5.430
142204.000			-59.723			-5.429
142304.000			-59.723			-5.429
142404.000			-59.723			-5.429
142503.000			-59.722			-5.429
142605.000			-59.721			-5.429
142704.000			-59.721			-5.429
142805.000			-59.720			-5.429
142904.000			-59.718			-5.429
143004.000			-59.717			-5.429
143105.000			-59.716			-5.429
143204.000			-59.715			-5.429
143304.000			-59.715			-5.429
143404.000			-59.715			-5.429
143504.000			-59.715			-5.429
143604.000			-59.714			-5.429
143705.000			-59.712			-5.428
143804.000			-59.713			-5.428
143904.000			-59.712			-5.428
144005.000			-59.710			-5.428
144104.000			-59.710			-5.428
144204.000			-59.709			-5.428
144304.000			-59.709			-5.428
144404.000			-59.708			-5.428
144504.000			-59.707			-5.428
144605.000			-59.706			-5.428
144704.000			-59.705			-5.428
144804.000			-59.704			-5.428
144905.000			-59.703			-5.428
145004.000			-59.702			-5.427
145104.000			-59.702			-5.427
145204.000			-59.701			-5.427
145304.000			-59.701			-5.427
145403.000			-59.699			-5.427
145505.000			-59.698			-5.427
145604.000			-59.698			-5.427
145704.000			-59.697			-5.427
145805.000			-59.697			-5.427
145904.000			-59.696			-5.427
146005.000			-59.696			-5.427
146104.000			-59.694			-5.427
146204.000			-59.693			-5.427
146304.000			-59.693			-5.427
146404.000			-59.692			-5.427
146504.000			-59.691			-5.426
146605.000			-59.691			-5.426
146704.000			-59.690			-5.426
146804.000			-59.689			-5.426
146905.000			-59.689			-5.426
147004.000			-59.688			-5.426
147104.000			-59.686			-5.426
147204.000			-59.686			-5.426
147304.000			-59.685			-5.426
147403.000			-59.684			-5.426
147505.000			-59.683			-5.426
147604.000			-59.683			-5.426
147704.000			-59.681			-5.426
147805.000			-59.680			-5.425
147904.000			-59.680			-5.425
148004.000			-59.680			-5.425
148105.000			-59.680			-5.425
148204.000			-59.679			-5.425
148303.000			-59.677			-5.425
148405.000			-59.676			-5.425
148504.000			-59.675			-5.425
148604.000			-59.674			-5.425
148705.000			-59.674			-5.425
148804.000			-59.674			-5.425
148904.000			-59.673			-5.425
149004.000			-59.672			-5.425
149104.000			-59.671			-5.425
149205.000			-59.672			-5.425
149304.000			-59.671			-5.425
149403.000			-59.669			-5.424
149505.000			-59.668			-5.424
149604.000			-59.667			-5.424
149704.000			-59.666			-5.424
149805.000			-59.666			-5.424
149904.000			-59.666			-5.424
150004.000			-59.666			-5.424
150105.000			-59.665			-5.424
150204.000			-59.664			-5.424
150303.000			-59.663			-5.424
150405.000			-59.661			-5.424
150503.000			-59.661			-5.424
150604.000			-59.661			-5.424
150705.000			-59.660			-5.424
150804.000			-59.658			-5.423
150904.000			-59.658			-5.423
151005.000			-59.659			-5.424
151104.000			-59.658			-5.423
151204.000			-59.656			-5.423
151305.000			-59.655			-5.423
151403.000			-59.654			-5.423
151504.000			-59.653			-5.423
151605.000			-59.653			-5.423
151704.000			-59.653			-5.423
151804.000			-59.652			-5.423
151905.000			-59.649			-5.423
152004.000			-59.649			-5.423
152104.000			-59.650			-5.423
152205.000			-59.648			-5.423
152303.000			-59.648			-5.423
152405.000			-59.648			-5.423
152504.000			-59.648			-5.423
152604.000			-59.645			-5.422
152705.000			-59.644			-5.422
152804.000			-59.644			-5.422
152904.000			-59.643			-5.422
153005.000			-59.643			-5.422
153104.000			-59.642			-5.422
153203.000			-59.642			-5.422
153305.000			-59.641			-5.422
153403.000			-59.639			-5.422
153504.000			-59.638			-5.422
153605.000			-59.638			-5.422
153704.000			-59.637			-5.422
153804.000			-59.637			-5.422
153905.000			-59.637			-5.422
154004.000			-59.636			-5.421
154104.000			-59.635			-5.421
154205.000			-59.635			-5.421
154303.000			-59.634			-5.421
154404.000			-59.632			-5.421
154505.000			-59.632			-5.421
154604.000			-59.632			-5.421
154704.000			-59.631			-5.421
154805.000			-59.630			-5.421
154904.000			-59.629			-5.421
155004.000			-59.627			-5.421
155105.000			-59.627			-5.421
155203.000			-59.627			-5.421
155304.000			-59.626			-5.421
155405.000			-59.625			-5.420
155504.000			-59.624			-5.420
155605.000			-59.624			-5.420
155704.000			-59.623			-5.420
155804.000			-59.622			-5.420
155905.000			-59.622			-5.420
156004.000			-59.621			-5.420
156103.000			-59.621			-5.420
156205.000			-59.619			-5.420
156303.000			-59.619			-5.420
156404.000			-59.617			-5.420
156505.000			-59.617			-5.420
156604.000			-59.616			-5.420
156704.000			-59.616			-5.420
156805.000			-59.615			-5.420
156904.000			-59.615			-5.420
157003.000			-59.613			-5.419
157105.000			-59.612			-5.419
157203.000			-59.612			-5.419
157304.000			-59.612			-5.419
157405.000			-59.610			-5.419
157504.000			-59.611			-5.419
157604.000			-59.610			-5.419
157705.000			-59.608			-5.419
157804.000			-59.609			-5.419
157904.000			-59.608			-5.419
158005.000			-59.607			-5.419
158103.000			-59.606			-5.419
158204.000			-59.604			-5.419
158305.000			-59.604			-5.419
158404.000			-59.603			-5.418
158504.000			-59.603			-5.418
158604.000			-59.602			-5.418
158704.000			-59.601			-5.418
158805.000			-59.601			-5.418
158904.000			-59.600			-5.418
159003.000			-59.600			-5.418
159105.000			-59.599			-5.418
159203.000			-59.598			-5.418
159304.000			-59.597			-5.418
159405.000			-59.596			-5.418
159504.000			-59.596			-5.418
159604.000			-59.596			-5.418
159705.000			-59.595			-5.418
159804.000			-59.594			-5.418
159904.000			-59.594			-5.418
160005.000			-59.592			-5.417
160103.000			-59.592			-5.417
160204.000			-59.592			-5.417
160304.000			-59.590			-5.417
160404.000			-59.589			-5.417
160504.000			-59.589			-5.417
160605.000			-59.588			-5.417
160704.000			-59.587			-5.417
160804.000			-59.586			-5.417
160905.000			-59.586			-5.417
161003.000			-59.585			-5.417
161104.000			-59.584			-5.417
161204.000			-59.583			-5.417
161304.000			-59.584			-5.417
161404.000			-59.583			-5.417
161505.000			-59.581			-5.416
161604.000			-59.580			-5.416
161704.000			-59.581			-5.416
161805.000			-59.580			-5.416
161904.000			-59.579			-5.416
162005.000			-59.578			-5.416
162103.000			-59.577			-5.416
162204.000			-59.576			-5.416
162305.000			-59.576			-5.416
162404.000			-59.575			-5.416
162504.000			-59.576			-5.416
162605.000			-59.575			-5.416
162704.000			-59.573			-5.416
162804.000			-59.572			-5.416
162905.000			-59.572			-5.416
163003.000			-59.571			-5.416
163104.000			-59.569			-5.415
163204.000			-59.570			-5.415
163304.000			-59.570			-5.415
163404.000			-59.569			-5.415
163505.000			-59.568			-5.415
163604.000			-59.567			-5.415
163704.000			-59.566			-5.415
163805.000			-59.566			-5.415
163904.000			-59.566			-5.415
164004.000			-59.565			-5.415
164104.000			-59.563			-5.415
164204.000			-59.563			-5.415
164304.000			-59.562			-5.415
164405.000			-59.561			-5.415
164504.000			-59.561			-5.415
164604.000			-59.560			-5.415
164705.000			-59.559			-5.414
164804.000			-59.559			-5.414
164904.000			-59.558			-5.414
165003.000			-59.556			-5.414
165104.000			-59.556			-5.414
165203.000			-59.555			-5.414
165304.000			-59.555			-5.414
165404.000			-59.554			-5.414
165505.000			-59.554			-5.414
165604.000			-59.553			-5.414
165704.000			-59.553			-5.414
165805.000			-59.553			-5.414
165903.000			-59.552			-5.414
166004.000			-59.551			-5.414
166104.000			-59.550			-5.414
166204.000			-59.550			-5.414
166304.000			-59.549			-5.414
166405.000			-59.548			-5.413
166504.000			-59.547			-5.413
166604.000			-59.546			-5.413
166705.000			-59.546			-5.413
166804.000			-59.545			-5.413
166904.000			-59.545			-5.413
167004.000			-59.544			-5.413
167104.000			-59.543			-5.413
167203.000			-59.543			-5.413
167305.000			-59.541			-5.413
167404.000			-59.540			-5.413
167504.000			-59.540			-5.413
167605.000			-59.540			-5.413
167704.000			-59.539			-5.413
167804.000			-59.538			-5.413
167904.000			-59.537			-5.412
168004.000			-59.537			-5.412
168103.000			-59.537			-5.412
168205.000			-59.537			-5.412
168304.000			-59.536			-5.412
168405.000			-59.534			-5.412
168504.000			-59.533			-5.412
168604.000			-59.532			-5.412
168705.000			-59.532			-5.412
168804.000			-59.530			-5.412
168904.000			-59.530			-5.412
169004.000			-59.530			-5.412
169104.000			-59.530			-5.412
169203.000			-59.529			-5.412
169305.000			-59.528			-5.412
169404.000			-59.527			-5.412
169504.000			-59.527			-5.412
169605.000			-59.527			-5.412
169704.000			-59.526			-5.411
169804.000			-59.526			-5.411
169905.000			-59.525			-5.411
170004.000			-59.524			-5.411
170103.000			-59.524			-5.411
170205.000			-59.523			-5.411
170304.000			-59.523			-5.411
170404.000			-59.521			-5.411
170505.000			-59.520			-5.411
170604.000			-59.520			-5.411
170704.000			-59.518			-5.411
170805.000			-59.518			-5.411
170904.000			-59.518			-5.411
171003.000			-59.516			-5.411
171105.000			-59.517			-5.411
171204.000			-59.517			-5.411
171304.000			-59.516			-5.411
171405.000			-59.516			-5.411
171504.000			-59.514			-5.410
171605.000			-59.512			-5.410
171704.000			-59.512			-5.410
171804.000			-59.512			-5.410
171904.000			-59.512			-5.410
172004.000			-59.511			-5.410
172104.000			-59.510			-5.410
172205.000			-59.509			-5.410
172304.000			-59.508			-5.410
172404.000			-59.508			-5.410
172505.000			-59.507			-5.410
172604.000			-59.506			-5.410
172704.000			-59.506			-5.410
172804.000			-59.506			-5.410
172904.000			-59.505			-5.410
173003.000			-59.504			-5.409
173105.000			-59.503			-5.409
173204.000			-59.503			-5.409
173304.000			-59.502			-5.409
173405.000			-59.501			-5.409
173504.000			-59.500			-5.409
173604.000			-59.500			-5.409
173704.000			-59.499			-5.409
173804.000			-59.499			-5.409
173903.000			-59.498			-5.409
174005.000			-59.497			-5.409
174104.000			-59.497			-5.409
174204.000			-59.497			-5.409
174305.000			-59.496			-5.409
174404.000			-59.495			-5.409
174504.000			-59.494			-5.409
174604.000			-59.494			-5.409
174704.000			-59.492			-5.408
174803.000			-59.491			-5.408
174904.000			-59.491			-5.408
175003.000			-59.491			-5.408
175105.000			-59.490			-5.408
175204.000			-59.490			-5.408
175304.000			-59.489			-5.408
175405.000			-59.488			-5.408
175504.000			-59.488			-5.408
175604.000			-59.489			-5.408
175705.000			-59.488			-5.408
175804.000			-59.485			-5.408
175903.000			-59.484			-5.408
176005.000			-59.485			-5.408
176103.000			-59.484			-5.408
176204.000			-59.484			-5.408
176305.000			-59.483			-5.408
176404.000			-59.482			-5.407
176504.000			-59.481			-5.407
176605.000			-59.481			-5.407
176704.000			-59.480			-5.407
176804.000			-59.478			-5.407
176905.000			-59.479			-5.407
177003.000			-59.478			-5.407
177104.000			-59.477			-5.407
177205.000			-59.475			-5.407
177304.000			-59.475			-5.407
177404.000			-59.475			-5.407
177505.000			-59.474			-5.407
177604.000			-59.474			-5.407
177704.000			-59.474			-5.407
177805.000			-59.474			-5.407
177903.000			-59.472			-5.407
178005.000			-59.471			-5.406
178103.000			-59.470			-5.406
178204.000			-59.470			-5.406
178305.000			-59.469			-5.406
178404.000			-59.470			-5.406
178504.000			-59.469			-5.406
178605.000			-59.467			-5.406
178704.000			-59.467			-5.406
178804.000			-59.466			-5.406
178905.000			-59.465			-5.406
179003.000			-59.466			-5.406
179104.000			-59.465			-5.406
179204.000			-59.464			-5.406
179304.000			-59.463			-5.406
179404.000			-59.462			-5.406
179505.000			-59.462			-5.406
179604.000			-59.462			-5.406
179704.000			-59.461			-5.406
179805.000			-59.461			-5.406
179904.000			-59.460			-5.405
180004.000			-59.459			-5.405
180104.000			-59.458			-5.405
180204.000			-59.456			-5.405
180303.000			-59.457			-5.405
180405.000			-59.456			-5.405
180504.000			-59.456			-5.405
180604.000			-59.455			-5.405
180705.000			-59.454			-5.405
180804.000			-59.454			-5.405
180904.000			-59.452			-5.405
181003.000			-59.452			-5.405
181104.000			-59.451			-5.405
181203.000			-59.450			-5.405
181304.000			-59.451			-5.405
181404.000			-59.450			-5.405
181505.000			-59.449			-5.404
181604.000			-59.449			-5.404
181704.000			-59.448			-5.404
181805.000			-59.447			-5.404
181903.000			-59.447			-5.404
182004.000			-59.446			-5.404
182104.000			-59.445			-5.404
182204.000			-59.444			-5.404
182304.000			-59.444			-5.404
182405.000			-59.444			-5.404
182504.000			-59.443			-5.404
182604.000			-59.442			-5.404
182705.000			-59.442			-5.404
182804.000			-59.441			-5.404
182904.000			-59.441			-5.404
183004.000			-59.439			-5.404
183104.000			-59.438			-5.403
183203.000			-59.438			-5.403
183305.000			-59.438			-5.403
183404.000			-59.437			-5.403
183504.000			-59.437			-5.403
183605.000			-59.437			-5.403
183704.000			-59.436			-5.403
183804.000			-59.435			-5.403
183905.000			-59.433			-5.403
184004.000			-59.433			-5.403
184103.000			-59.434			-5.403
184205.000			-59.433			-5.403
184304.000			-59.432			-5.403
184405.000			-59.432			-5.403
184504.000			-59.431			-5.403
184604.000			-59.430			-5.403
184705.000			-59.430			-5.403
184804.000			-59.429			-5.403
184904.000			-59.428			-5.403
185004.000			-59.427			-5.402
185104.000			-59.427			-5.402
185203.000			-59.427			-5.402
185305.000			-59.425			-5.402
185404.000			-59.424			-5.402
185504.000			-59.425			-5.402
185605.000			-59.425			-5.402
185704.000			-59.424			-5.402
185804.000			-59.423			-5.402
185904.000			-59.422			-5.402
186004.000			-59.422			-5.402
186103.000			-59.421			-5.402
186205.000			-59.421			-5.402
186304.000			-59.420			-5.402
186404.000			-59.419			-5.402
186505.000			-59.418			-5.402
186604.000			-59.419			-5.402
186704.000			-59.416			-5.401
186805.000			-59.416			-5.401
186904.000			-59.416			-5.401
187003.000			-59.416			-5.401
187105.000			-59.415			-5.401
187204.000			-59.414			-5.401
187304.000			-59.414			-5.401
187405.000			-59.413			-5.401
187504.000			-59.412			-5.401
187605.000			-59.411			-5.401
187704.000			-59.411			-5.401
187804.000			-59.411			-5.401
187904.000			-59.409			-5.401
188004.000			-59.408			-5.401
188103.000			-59.409			-5.401
188205.000			-59.408			-5.401
188304.000			-59.406			-5.401
188404.000			-59.407			-5.401
188505.000			-59.407			-5.401
188604.000			-59.405			-5.400
188704.000			-59.405			-5.400
188805.000			-59.404			-5.400
188904.000			-59.404			-5.400
189003.000			-59.402			-5.400
189105.000			-59.401			-5.400
189204.000			-59.402			-5.400
189304.000			-59.402			-5.400
189405.000			-59.401			-5.400
189504.000			-59.400			-5.400
189604.000			-59.400			-5.400
189705.000			-59.400			-5.400
189804.000			-59.398			-5.400
189903.000			-59.397			-5.400
190005.000			-59.397			-5.400
190103.000			-59.396			-5.400
190204.000			-59.396			-5.400
190305.000			-59.395			-5.400
190404.000			-59.395			-5.400
190504.000			-59.394			-5.399
190604.000			-59.392			-5.399
190704.000			-59.392			-5.399
190805.000			-59.392			-5.399
190904.000			-59.393			-5.399
191003.000			-59.391			-5.399
191105.000			-59.391			-5.399
191204.000			-59.390			-5.399
191304.000			-59.390			-5.399
191405.000			-59.389			-5.399
191504.000			-59.389			-5.399
191604.000			-59.388			-5.399
191705.000			-59.385			-5.399
191804.000			-59.385			-5.399
191903.000			-59.385			-5.399
192005.000			-59.384			-5.399
192103.000			-59.385			-5.399
192204.000			-59.384			-5.399
192305.000			-59.384			-5.399
192404.000			-59.383			-5.398
192504.000			-59.383			-5.398
192605.000			-59.381			-5.398
192704.000			-59.381			-5.398
192803.000			-59.381			-5.398
192905.000			-59.380			-5.398
193003.000			-59.380			-5.398
193104.000			-59.380			-5.398
193205.000			-59.378			-5.398
193304.000			-59.377			-5.398
193404.000			-59.377			-5.398
193505.000			-59.376			-5.398
193604.000			-59.376			-5.398
193704.000			-59.376			-5.398
193805.000			-59.374			-5.398
193903.000			-59.374			-5.398
194005.000			-59.374			-5.398
194104.000			-59.373			-5.398
194204.000			-59.371			-5.397
194305.000			-59.371			-5.397
194404.000			-59.370			-5.397
194504.000			-59.370			-5.397
194605.000			-59.370			-5.397
194704.000			-59.369			-5.397
194803.000			-59.368			-5.397
194905.000			-59.367			-5.397
195003.000			-59.367			-5.397
195104.000			-59.366			-5.397
195205.000			-59.365			-5.397
195304.000			-59.366			-5.397
195404.000			-59.365			-5.397
195505.000			-59.365			-5.397
195604.000			-59.365			-5.397
195704.000			-59.364			-5.397
195805.000			-59.363			-5.397
195903.000			-59.363			-5.397
196004.000			-59.363			-5.397
196105.000			-59.361			-5.396
196204.000			-59.361			-5.396
196304.000			-59.361			-5.396
196405.000			-59.360			-5.396
196504.000			-59.359			-5.396
196604.000			-59.359			-5.396
196705.000			-59.358			-5.396
196804.000			-59.357			-5.396
196904.000			-59.356			-5.396
197003.000			-59.356			-5.396
197104.000			-59.355			-5.396
197205.000			-59.355			-5.396
197304.000			-59.354			-5.396
197404.000			-59.353			-5.396
197505.000			-59.353			-5.396
197604.000			-59.353			-5.396
197704.000			-59.353			-5.396
197805.000			-59.352			-5.396
197903.000			-59.351			-5.396
198004.000			-59.350			-5.395
198104.000			-59.350			-5.395
198204.000			-59.350			-5.395
198304.000			-59.349			-5.395
198405.000			-59.348			-5.395
198504.000			-59.348			-5.395
198604.000			-59.347			-5.395
198705.000			-59.347			-5.395
198804.000			-59.346			-5.395
198904.000			-59.345			-5.395
199004.000			-59.345			-5.395
199104.000			-59.344			-5.395
199203.000			-59.343			-5.395
199305.000			-59.343			-5.395
199404.000			-59.342			-5.395
199504.000			-59.341			-5.395
199605.000			-59.340			-5.395
199704.000			-59.341			-5.395
199804.000			-59.340			-5.395
199905.000			-59.339			-5.394
200004.000			-59.339			-5.394
200103.000			-59.338			-5.394
200205.000			-59.338			-5.394
200304.000			-59.337			-5.394
200405.000			-59.336			-5.394
200504.000			-59.336			-5.394
200604.000			-59.336			-5.394
200705.000			-59.334			-5.394
200804.000			-59.333			-5.394
200904.000			-59.333			-5.394
201004.000			-59.332			-5.394
201104.000			-59.332			-5.394
201204.000			-59.331			-5.394
201305.000			-59.331			-5.394
201404.000			-59.330			-5.394
201504.000			-59.330			-5.394
201605.000			-59.330			-5.394
201704.000			-59.329			-5.394
201804.000			-59.329			-5.394
201904.000			-59.328			-5.393
202004.000			-59.326			-5.393
202104.000			-59.326			-5.393
202205.000			-59.327			-5.393
202304.000			-59.327			-5.393
202404.000			-59.326			-5.393
202505.000			-59.324			-5.393
202604.000			-59.323			-5.393
202704.000			-59.324			-5.393
202804.000			-59.322			-5.393
202904.000			-59.322			-5.393
203004.000			-59.321			-5.393
203105.000			-59.321			-5.393
203204.000			-59.321			-5.393
203304.000			-59.321			-5.393
203405.000			-59.319			-5.393
203503.000			-59.318			-5.393
203605.000			-59.319			-5.393
203703.000			-59.319			-5.393
203804.000			-59.318			-5.393
203905.000			-59.317			-5.392
204004.000			-59.317			-5.392
204104.000			-59.316			-5.392
204205.000			-59.316			-5.392
204304.000			-59.315			-5.392
204403.000			-59.314			-5.392
204505.000			-59.312			-5.392
204603.000			-59.313			-5.392
204704.000			-59.313			-5.392
204805.000			-59.311			-5.392
204904.000			-59.310			-5.392
205004.000			-59.309			-5.392
205105.000			-59.309			-5.392
205204.000			-59.310			-5.392
205303.000			-59.309			-5.392
205405.000			-59.307			-5.392
205504.000			-59.306			-5.391
205604.000			-59.305			-5.391
205705.000			-59.306			-5.391
205804.000			-59.306			-5.391
205904.000			-59.306			-5.391
206005.000			-59.305			-5.391
206104.000			-59.304			-5.391
206203.000			-59.303			-5.391
206305.000			-59.303			-5.391
206404.000			-59.303			-5.391
206504.000			-59.301			-5.391
206605.000			-59.301			-5.391
206704.000			-59.301			-5.391
206805.000			-59.301			-5.391
206904.000			-59.301			-5.391
207004.000			-59.299			-5.391
207104.000			-59.298			-5.391
207204.000			-59.298			-5.391
207303.000			-59.297			-5.391
207405.000			-59.297			-5.391
207504.000			-59.297			-5.391
207604.000			-59.297			-5.391
207705.000			-59.296			-5.391
207804.000			-59.296			-5.391
207904.000			-59.296			-5.391
208005.000			-59.295			-5.390
208104.000			-59.294			-5.390
208203.000			-59.292			-5.390
208305.000			-59.291			-5.390
208404.000			-59.291			-5.390
208504.000			-59.291			-5.390
208605.000			-59.291			-5.390
208704.000			-59.290			-5.390
208804.000			-59.289			-5.390
208905.000			-59.289			-5.390
209004.000			-59.288			-5.390
209103.000			-59.287			-5.390
209205.000			-59.288			-5.390
209304.000			-59.288			-5.390
209404.000			-59.286			-5.390
209505.000			-59.286			-5.390
209604.000			-59.285			-5.390
209704.000			-59.285			-5.390
209804.000			-59.284			-5.389
209904.000			-59.283			-5.389
210003.000			-59.282			-5.389
210104.000			-59.282			-5.389
210203.000			-59.281			-5.389
210305.000			-59.280			-5.389
210404.000			-59.280			-5.389
210504.000			-59.280			-5.389
210605.000			-59.279			-5.389
210704.000			-59.278			-5.389
210804.000			-59.278			-5.389
210905.000			-59.278			-5.389
211004.000			-59.277			-5.389
211103.000			-59.276			-5.389
211205.000			-59.275			-5.389
211304.000			-59.276			-5.389
211404.000			-59.275			-5.389
211505.000			-59.275			-5.389
211604.000			-59.274			-5.389
211704.000			-59.273			-5.388
211805.000			-59.272			-5.388
211904.000			-59.272			-5.388
212003.000			-59.271			-5.388
212105.000			-59.271			-5.388
212204.000			-59.271			-5.388
212304.000			-59.270			-5.388
212405.000			-59.269			-5.388
212504.000			-59.268			-5.388
212604.000			-59.267			-5.388
212704.000			-59.267			-5.388
212804.000			-59.266			-5.388
212903.000			-59.265			-5.388
213005.000			-59.265			-5.388
213104.000			-59.266			-5.388
213205.000			-59.265			-5.388
213304.000			-59.264			-5.388
213404.000			-59.264			-5.388
213505.000			-59.263			-5.388
213604.000			-59.262			-5.387
213704.000			-59.262			-5.387
213804.000			-59.262			-5.387
213904.000			-59.261			-5.387
214004.000			-59.261			-5.387
214105.000			-59.259			-5.387
214204.000			-59.259			-5.387
214304.000			-59.259			-5.387
214405.000			-59.258			-5.387
214504.000			-59.259			-5.387
214604.000			-59.258			-5.387
214704.000			-59.257			-5.387
214804.000			-59.256			-5.387
214904.000			-59.255			-5.387
215005.000			-59.255			-5.387
215104.000			-59.254			-5.387
215204.000			-59.254			-5.387
215305.000			-59.253			-5.387
215404.000			-59.252			-5.387
215504.000			-59.253			-5.387
215604.000			-59.253			-5.387
215704.000			-59.252			-5.387
215804.000			-59.251			-5.386
215905.000			-59.250			-5.386
216004.000			-59.249			-5.386
216104.000			-59.250			-5.386
216205.000			-59.248			-5.386
216304.000			-59.248			-5.386
216405.000			-59.248			-5.386
216503.000			-59.248			-5.386
216604.000			-59.247			-5.386
216705.000			-59.246			-5.386
216804.000			-59.245			-5.386
216904.000			-59.246			-5.386
217005.000			-59.245			-5.386
217104.000			-59.244			-5.386
217204.000			-59.242			-5.386
217305.000			-59.242			-5.386
217403.000			-59.242			-5.386
217504.000			-59.241			-5.386
217605.000			-59.241			-5.386
217704.000			-59.241			-5.386
217804.000			-59.240			-5.385
217905.000			-59.239			-5.385
218004.000			-59.238			-5.385
218104.000			-59.238			-5.385
218205.000			-59.238			-5.385
218303.000			-59.237			-5.385
218404.000			-59.237			-5.385
218505.000			-59.236			-5.385
218604.000			-59.235			-5.385
218704.000			-59.235			-5.385
218805.000			-59.235			-5.385
218904.000			-59.234			-5.385
219004.000			-59.234			-5.385
219105.000			-59.233			-5.385
219203.000			-59.233			-5.385
219304.000			-59.231			-5.385
219405.000			-59.232			-5.385
219504.000			-59.231			-5.385
219605.000			-59.230			-5.385
219704.000			-59.230			-5.385
219804.000			-59.230			-5.385
219905.000			-59.229			-5.384
220004.000			-59.227			-5.384
220103.000			-59.226			-5.384
220205.000			-59.226			-5.384
220304.000			-59.226			-5.384
220404.000			-59.226			-5.384
220505.000			-59.225			-5.384
220604.000			-59.225			-5.384
220704.000			-59.225			-5.384
220805.000			-59.224			-5.384
220904.000			-59.224			-5.384
221003.000			-59.223			-5.384
221105.000			-59.223			-5.384
221204.000			-59.222			-5.384
221304.000			-59.221			-5.384
221405.000			-59.220			-5.384
221504.000			-59.220			-5.384
221604.000			-59.220			-5.384
221704.000			-59.219			-5.384
221804.000			-59.219			-5.384
221903.000			-59.219			-5.384
222005.000			-59.218			-5.383
222104.000			-59.217			-5.383
222204.000			-59.216			-5.383
222305.000			-59.215			-5.383
222404.000			-59.215			-5.383
222504.000			-59.216			-5.383
222603.000			-59.215			-5.383
222704.000			-59.214			-5.383
222803.000			-59.213			-5.383
222904.000			-59.213			-5.383
223004.000			-59.213			-5.383
223105.000			-59.212			-5.383
223204.000			-59.212			-5.383
223304.000			-59.211			-5.383
223405.000			-59.210			-5.383
223503.000			-59.209			-5.383
223604.000			-59.209			-5.383
223705.000			-59.208			-5.383
223804.000			-59.207			-5.382
223904.000			-59.206			-5.382
224005.000			-59.208			-5.383
224104.000			-59.207			-5.382
224204.000			-59.205			-5.382
224305.000			-59.205			-5.382
224403.000			-59.205			-5.382
224504.000			-59.204			-5.382
224605.000			-59.203			-5.382
224704.000			-59.204			-5.382
224804.000			-59.203			-5.382
224905.000			-59.202			-5.382
225004.000			-59.201			-5.382
225104.000			-59.200			-5.382
225205.000			-59.199			-5.382
225303.000			-59.200			-5.382
225404.000			-59.199			-5.382
225505.000			-59.198			-5.382
225604.000			-59.198			-5.382
225704.000			-59.198			-5.382
225804.000			-59.197			-5.382
225904.000			-59.196			-5.381
226005.000			-59.196			-5.381
226104.000			-59.195			-5.381
226203.000			-59.195			-5.381
226305.000			-59.195			-5.381
226403.000			-59.193			-5.381
226504.000			-59.192			-5.381
226605.000			-59.192			-5.381
226704.000			-59.193			-5.381
226804.000			-59.191			-5.381
226905.000			-59.192			-5.381
227004.000			-59.192			-5.381
227104.000			-59.192			-5.381
227205.000			-59.190			-5.381
227303.000			-59.189			-5.381
227404.000			-59.188			-5.381
227505.000			-59.188			-5.381
227604.000			-59.188			-5.381
227704.000			-59.188			-5.381
227805.000			-59.188			-5.381
227904.000			-59.187			-5.381
228004.000			-59.185			-5.380
228105.000			-59.185			-5.380
228203.000			-59.185			-5.380
228304.000			-59.184			-5.380
228404.000			-59.184			-5.380
228504.000			-59.184			-5.380
228604.000			-59.183			-5.380
228705.000			-59.181			-5.380
228804.000			-59.182			-5.380
228904.000			-59.181			-5.380
229005.000			-59.181			-5.380
229103.000			-59.181			-5.380
229205.000			-59.180			-5.380
229303.000			-59.180			-5.380
229404.000			-59.180			-5.380
229505.000			-59.178			-5.380
229604.000			-59.177			-5.380
229704.000			-59.177			-5.380
229805.000			-59.178			-5.380
229904.000			-59.176			-5.380
230004.000			-59.175			-5.380
230105.000			-59.176			-5.380
230203.000			-59.176			-5.380
230304.000			-59.175			-5.380
230405.000			-59.174			-5.379
230504.000			-59.173			-5.379
230604.000			-59.173			-5.379
230705.000			-59.172			-5.379
230804.000			-59.171			-5.379
230904.000			-59.169			-5.379
231005.000			-59.169			-5.379
231103.000			-59.170			-5.379
231204.000			-59.170			-5.379
231305.000			-59.169			-5.379
231404.000			-59.169			-5.379
231504.000			-59.168			-5.379
231605.000			-59.168			-5.379
231704.000			-59.167			-5.379
231804.000			-59.167			-5.379
231905.000			-59.166			-5.379
232003.000			-59.165			-5.379
232104.000			-59.164			-5.379
232205.000			-59.164			-5.379
232304.000			-59.164			-5.379
232405.000			-59.163			-5.378
232504.000			-59.163			-5.378
232604.000			-59.163			-5.378
232705.000			-59.162			-5.378
232804.000			-59.162			-5.378
232903.000			-59.161			-5.378
233005.000			-59.161			-5.378
233104.000			-59.160			-5.378
233204.000			-59.161			-5.378
233305.000			-59.161			-5.378
233404.000			-59.160			-5.378
233504.000			-59.159			-5.378
233604.000			-59.158			-5.378
233704.000			-59.157			-5.378
233803.000			-59.157			-5.378
233905.000			-59.157			-5.378
234004.000			-59.156			-5.378
234104.000			-59.155			-5.378
234205.000			-59.154			-5.378
234304.000			-59.154			-5.378
234404.000			-59.153			-5.378
234505.000			-59.152			-5.377
234604.000			-59.153			-5.378
234703.000			-59.152			-5.377
234805.000			-59.151			-5.377
234904.000			-59.151			-5.377
235004.000			-59.151			-5.377
235105.000			-59.150			-5.377
235204.000			-59.150			-5.377
235304.000			-59.149			-5.377
235404.000			-59.149			-5.377
235504.000			-59.148			-5.377
235603.000			-59.147			-5.377
235704.000			-59.147			-5.377
235804.000			-59.147			-5.377
235905.000			-59.147			-5.377
236004.000			-59.146			-5.377
236104.000			-59.145			-5.377
236205.000			-59.144			-5.377
236304.000			-59.145			-5.377
236404.000			-59.144			-5.377
236504.000			-59.143			-5.377
236604.000			-59.143			-5.377
236703.000			-59.142			-5.377
236805.000			-59.142			-5.377
236904.000			-59.142			-5.377
237004.000			-59.141			-5.376
237105.000			-59.141			-5.376
237204.000			-59.139			-5.376
237304.000			-59.140			-5.376
237404.000			-59.138			-5.376
237504.000			-59.137			-5.376
237603.000			-59.137			-5.376
237705.000			-59.137			-5.376
237804.000			-59.136			-5.376
237904.000			-59.136			-5.376
238005.000			-59.136			-5.376
238104.000			-59.136			-5.376
238204.000			-59.135			-5.376
238304.000			-59.134			-5.376
238404.000			-59.133			-5.376
238503.000			-59.133			-5.376
238605.000			-59.133			-5.376
238704.000			-59.133			-5.376
238805.000			-59.131			-5.376
238904.000			-59.131			-5.376
239004.000			-59.131			-5.376
239105.000			-59.131			-5.376
239204.000			-59.131			-5.376
239304.000			-59.130			-5.375
239404.000			-59.129			-5.375
239504.000			-59.129			-5.375
239604.000			-59.128			-5.375
239705.000			-59.127			-5.375
239804.000			-59.126			-5.375
239904.000			-59.126			-5.375
240005.000			-59.126			-5.375
240104.000			-59.125			-5.375
240204.000			-59.126			-5.375
240304.000			-59.124			-5.375
240404.000			-59.123			-5.375
240504.000			-59.123			-5.375
240605.000			-59.123			-5.375
240704.000			-59.122			-5.375
240804.000			-59.121			-5.375
240905.000			-59.120			-5.375
241004.000			-59.118			-5.374
241104.000			-59.118			-5.374
241204.000			-59.117			-5.374
241304.000			-59.116			-5.374
241404.000			-59.116			-5.374
241505.000			-59.116			-5.374
241604.000			-59.116			-5.374
241704.000			-59.115			-5.374
241805.000			-59.114			-5.374
241903.000			-59.114			-5.374
242005.000			-59.113			-5.374
242103.000			-59.113			-5.374
242204.000			-59.113			-5.374
242305.000			-59.111			-5.374
242404.000			-59.111			-5.374
242504.000			-59.111			-5.374
242605.000			-59.111			-5.374
242704.000			-59.110			-5.374
242803.000			-59.110			-5.374
242905.000			-59.108			-5.373
243003.000			-59.108			-5.373
243104.000			-59.108			-5.373
243205.000			-59.107			-5.373
243304.000			-59.107			-5.373
243404.000			-59.108			-5.373
243505.000			-59.107			-5.373
243604.000			-59.106			-5.373
243703.000			-59.105			-5.373
243805.000			-59.105			-5.373
243904.000			-59.103			-5.373
244004.000			-59.103			-5.373
244105.000			-59.103			-5.373
244204.000			-59.102			-5.373
244304.000			-59.103			-5.373
244405.000			-59.102			-5.373
244504.000			-59.101			-5.373
244603.000			-59.101			-5.373
244705.000			-59.100			-5.373
244804.000			-59.100			-5.373
244904.000			-59.100			-5.373
245005.000			-59.100			-5.373
245104.000			-59.100			-5.373
245205.000			-59.099			-5.373
245304.000			-59.097			-5.372
245404.000			-59.097			-5.372
245504.000			-59.097			-5.372
245604.000			-59.096			-5.372
245704.000			-59.096			-5.372
245805.000			-59.095			-5.372
245904.000			-59.094			-5.372
246004.000			-59.095			-5.372
246105.000			-59.094			-5.372
246204.000			-59.094			-5.372
246304.000			-59.093			-5.372
246404.000			-59.092			-5.372
246504.000			-59.091			-5.372
246603.000			-59.091			-5.372
246705.000			-59.091			-5.372
246804.000			-59.091			-5.372
246904.000			-59.091			-5.372
247005.000			-59.090			-5.372
247104.000			-59.089			-5.372
247204.000			-59.088			-5.372
247304.000			-59.088			-5.372
247404.000			-59.087			-5.372
247503.000			-59.088			-5.372
247605.000			-59.086			-5.371
247704.000			-59.086			-5.371
247804.000			-59.085			-5.371
247905.000			-59.085			-5.371
248004.000			-59.084			-5.371
248104.000			-59.084			-5.371
248204.000			-59.084			-5.371
248304.000			-59.083			-5.371
248403.000			-59.083			-5.371
248504.000			-59.083			-5.371
248604.000			-59.083			-5.371
248705.000			-59.082			-5.371
248804.000			-59.081			-5.371
248904.000			-59.080			-5.371
249005.000			-59.080			-5.371
249104.000			-59.079			-5.371
249204.000			-59.079			-5.371
249304.000			-59.079			-5.371
249404.000			-59.078			-5.371
249503.000			-59.077			-5.371
249605.000			-59.077			-5.371
249704.000			-59.078			-5.371
249804.000			-59.076			-5.371
249905.000			-59.076			-5.371
250004.000			-59.075			-5.370
250104.000			-59.075			-5.370
250204.000			-59.075			-5.370
250304.000			-59.075			-5.370
250403.000			-59.074			-5.370
250505.000			-59.072			-5.370
250604.000			-59.073			-5.370
250704.000			-59.074			-5.370
250805.000			-59.072			-5.370
250904.000			-59.073			-5.370
251004.000			-59.073			-5.370
251104.000			-59.070			-5.370
251204.000			-59.070			-5.370
251303.000			-59.071			-5.370
251405.000			-59.069			-5.370
251504.000			-59.068			-5.370
251605.000			-59.069			-5.370
251704.000			-59.069			-5.370
251804.000			-59.068			-5.370
251905.000			-59.066			-5.370
252004.000			-59.066			-5.370
252104.000			-59.066			-5.370
252204.000			-59.066			-5.370
252304.000			-59.065			-5.370
252404.000			-59.065			-5.370
252505.000			-59.064			-5.369
252604.000			-59.065			-5.370
252704.000			-59.065			-5.370
252805.000			-59.063			-5.369
252904.000			-59.062			-5.369
253004.000			-59.063			-5.369
253104.000			-59.062			-5.369
253204.000			-59.062			-5.369
253304.000			-59.060			-5.369
253405.000			-59.060			-5.369
253504.000			-59.060			-5.369
253604.000			-59.059			-5.369
253705.000			-59.058			-5.369
253804.000			-59.059			-5.369
253904.000			-59.058			-5.369
254004.000			-59.058			-5.369
254104.000			-59.059			-5.369
254204.000			-59.057			-5.369
254305.000			-59.055			-5.369
254404.000			-59.055			-5.369
254504.000			-59.055			-5.369
254605.000			-59.054			-5.369
254704.000			-59.053			-5.368
254805.000			-59.054			-5.369
254903.000			-59.053			-5.368
255004.000			-59.052			-5.368
255105.000			-59.052			-5.368
255204.000			-59.052			-5.368
255304.000			-59.052			-5.368
255405.000			-59.051			-5.368
255504.000			-59.049			-5.368
255604.000			-59.049			-5.368
255705.000			-59.049			-5.368
255803.000			-59.049			-5.368
255904.000			-59.048			-5.368
256004.000			-59.048			-5.368
256104.000			-59.047			-5.368
256204.000			-59.045			-5.368
256305.000			-59.046			-5.368
256404.000			-59.046			-5.368
256504.000			-59.046			-5.368
256605.000			-59.047			-5.368
256703.000			-59.046			-5.368
256804.000			-59.043			-5.368
256904.000			-59.043			-5.368
257004.000			-59.043			-5.368
257104.000			-59.043			-5.368
257205.000			-59.042			-5.367
257304.000			-59.042			-5.367
257404.000			-59.041			-5.367
257505.000			-59.041			-5.367
257603.000			-59.041			-5.367
257704.000			-59.039			-5.367
257803.000			-59.039			-5.367
257904.000			-59.039			-5.367
258005.000			-59.039			-5.367
258104.000			-59.039			-5.367
258204.000			-59.039			-5.367
258305.000			-59.038			-5.367
258404.000			-59.037			-5.367
258504.000			-59.037			-5.367
258605.000			-59.037			-5.367
258703.000			-59.035			-5.367
258804.000			-59.035			-5.367
258905.000			-59.035			-5.367
259004.000			-59.034			-5.367
259104.000			-59.034			-5.367
259205.000			-59.033			-5.367
259304.000			-59.033			-5.367
259404.000			-59.033			-5.367
259505.000			-59.032			-5.367
259603.000			-59.032			-5.367
259704.000			-59.032			-5.367
259805.000			-59.031			-5.366
259904.000			-59.030			-5.366
260004.000			-59.030			-5.366
260105.000			-59.030			-5.366
260204.000			-59.029			-5.366
260304.000			-59.028			-5.366
260405.000			-59.029			-5.366
260503.000			-59.028			-5.366
260604.000			-59.028			-5.366
260705.000			-59.028			-5.366
260804.000			-59.027			-5.366
260904.000			-59.026			-5.366
261004.000			-59.026			-5.366
261104.000			-59.025			-5.366
261205.000			-59.025			-5.366
261304.000			-59.023			-5.366
261403.000			-59.024			-5.366
261505.000			-59.025			-5.366
261604.000			-59.023			-5.366
261704.000			-59.022			-5.366
261805.000			-59.023			-5.366
261904.000			-59.022			-5.366
262004.000			-59.020			-5.365
262105.000			-59.020			-5.365
262204.000			-59.020			-5.365
262303.000			-59.020			-5.365
262405.000			-59.019			-5.365
262504.000			-59.019			-5.365
262604.000			-59.018			-5.365
262705.000			-59.017			-5.365
262804.000			-59.018			-5.365
262904.000			-59.018			-5.365
263005.000			-59.017			-5.365
263104.000			-59.017			-5.365
263203.000			-59.016			-5.365
263305.000			-59.016			-5.365
263404.000			-59.016			-5.365
263504.000			-59.015			-5.365
263605.000			-59.014			-5.365
263704.000			-59.013			-5.365
263804.000			-59.014			-5.365
263904.000			-59.013			-5.365
264004.000			-59.012			-5.365
264103.000			-59.011			-5.365
264205.000			-59.011			-5.365
264304.000			-59.010			-5.365
264405.000			-59.011			-5.365
264504.000			-59.010			-5.365
264604.000			-59.009			-5.364
264705.000			-59.009			-5.364
264803.000			-59.009			-5.364
264904.000			-59.009			-5.364
265004.000			-59.008			-5.364
265104.000			-59.008			-5.364
265204.000			-59.007			-5.364
265305.000			-59.006			-5.364
265404.000			-59.006			-5.364
265504.000			-59.005			-5.364
265605.000			-59.005			-5.364
265703.000			-59.005			-5.364
265804.000			-59.005			-5.364
265904.000			-59.004			-5.364
266004.000			-59.003			-5.364
266104.000			-59.003			-5.364
266205.000			-59.004			-5.364
266304.000			-59.002			-5.364
266404.000			-59.001			-5.364
266505.000			-59.001			-5.364
266603.000			-59.001			-5.364
266704.000			-59.001			-5.364
266805.000			-59.000			-5.364
266904.000			-59.000			-5.364
267004.000			-58.998			-5.363
267105.000			-58.998			-5.363
267204.000			-58.998			-5.363
267304.000			-58.998			-5.363
267405.000			-58.998			-5.363
267504.000			-58.998			-5.363
267605.000			-58.997			-5.363
267703.000			-58.997			-5.363
267804.000			-58.995			-5.363
267904.000			-58.995			-5.363
268004.000			-58.995			-5.363
268104.000			-58.995			-5.363
268205.000			-58.993			-5.363
268304.000			-58.993			-5.363
268404.000			-58.994			-5.363
268505.000			-58.992			-5.363
268604.000			-58.992			-5.363
268704.000			-58.992			-5.363
268804.000			-58.991			-5.363
268904.000			-58.991			-5.363
269004.000			-58.991			-5.363
269105.000			-58.990			-5.363
269204.000			-58.991			-5.363
269304.000			-58.989			-5.363
269405.000			-58.989			-5.363
269504.000			-58.988			-5.363
269604.000			-58.987			-5.362
269704.000			-58.987			-5.362
269804.000			-58.987			-5.362
269903.000			-58.986			-5.362
270005.000			-58.986			-5.362
270104.000			-58.986			-5.362
270204.000			-58.985			-5.362
270305.000			-58.984			-5.362
270404.000			-58.984			-5.362
270504.000			-58.984			-5.362
270604.000			-58.983			-5.362
270704.000			-58.984			-5.362
270803.000			-58.984			-5.362
270904.000			-58.983			-5.362
271003.000			-58.982			-5.362
271105.000			-58.981			-5.362
271204.000			-58.981			-5.362
271304.000			-58.981			-5.362
271405.000			-58.979			-5.362
271504.000			-58.979			-5.362
271604.000			-58.979			-5.362
271704.000			-58.979			-5.362
271804.000			-58.978			-5.362
271903.000			-58.979			-5.362
272005.000			-58.978			-5.362
272104.000			-58.976			-5.361
272204.000			-58.976			-5.361
272305.000			-58.975			-5.361
272404.000			-58.975			-5.361
272504.000			-58.974			-5.361
272605.000			-58.976			-5.361
272704.000			-58.975			-5.361
272804.000			-58.974			-5.361
272905.000			-58.972			-5.361
273003.000			-58.972			-5.361
273104.000			-58.972			-5.361
273205.000			-58.973			-5.361
273304.000			-58.971			-5.361
273404.000			-58.971			-5.361
273505.000			-58.970			-5.361
273604.000			-58.970			-5.361
273704.000			-58.969			-5.361
273805.000			-58.970			-5.361
273904.000			-58.969			-5.361
274005.000			-58.969			-5.361
274103.000			-58.970			-5.361
274204.000			-58.969			-5.361
274305.000			-58.968			-5.361
274404.000			-58.968			-5.361
274504.000			-58.967			-5.361
274605.000			-58.966			-5.361
274704.000			-58.965			-5.360
274804.000			-58.965			-5.360
274905.000			-58.965			-5.360
275004.000			-58.965			-5.360
275104.000			-58.964			-5.360
275204.000			-58.963			-5.360
275304.000			-58.963			-5.360
275404.000			-58.962			-5.360
275505.000			-58.961			-5.360
275604.000			-58.961			-5.360
275704.000			-58.960			-5.360
275805.000			-58.960			-5.360
275904.000			-58.960			-5.360
276004.000			-58.960			-5.360
276104.000			-58.959			-5.360
276204.000			-58.959			-5.360
276303.000			-58.958			-5.360
276405.000			-58.957			-5.360
276504.000			-58.957			-5.360
276604.000			-58.957			-5.360
276705.000			-58.958			-5.360
276804.000			-58.956			-5.360
276904.000			-58.956			-5.360
277004.000			-58.956			-5.360
277104.000			-58.957			-5.360
277203.000			-58.955			-5.360
277304.000			-58.954			-5.359
277403.000			-58.953			-5.359
277505.000			-58.953			-5.359
277604.000			-58.952			-5.359
277704.000			-58.952			-5.359
277805.000			-58.952			-5.359
277904.000			-58.951			-5.359
278004.000			-58.951			-5.359
278105.000			-58.951			-5.359
278204.000			-58.950			-5.359
278303.000			-58.950			-5.359
278405.000			-58.949			-5.359
278504.000			-58.949			-5.359
278604.000			-58.949			-5.359
278705.000			-58.948			-5.359
278804.000			-58.947			-5.359
278904.000			-58.946			-5.359
279005.000			-58.945			-5.359
279104.000			-58.946			-5.359
279204.000			-58.945			-5.359
279305.000			-58.945			-5.359
279403.000			-58.944			-5.359
279504.000			-58.946			-5.359
279605.000			-58.945			-5.359
279704.000			-58.943			-5.358
279804.000			-58.943			-5.358
279905.000			-58.943			-5.358
280004.000			-58.942			-5.358
280104.000			-58.942			-5.358
280205.000			-58.942			-5.358
280303.000			-58.942			-5.358
280405.000			-58.941			-5.358
280503.000			-58.940			-5.358
280604.000			-58.940			-5.358
280705.000			-58.940			-5.358
280804.000			-58.939			-5.358
280904.000			-58.938			-5.358
281005.000			-58.938			-5.358
281104.000			-58.938			-5.358
281204.000			-58.938			-5.358
281305.000			-58.938			-5.358
281403.000			-58.936			-5.358
281504.000			-58.936			-5.358
281605.000			-58.935			-5.358
281704.000			-58.935			-5.358
281804.000			-58.935			-5.358
281905.000			-58.935			-5.358
282004.000			-58.935			-5.358
282104.000			-58.935			-5.358
282205.000			-58.933			-5.358
282303.000			-58.933			-5.358
282404.000			-58.933			-5.358
282505.000			-58.932			-5.357
282604.000			-58.931			-5.357
282704.000			-58.931			-5.357
282805.000			-58.931			-5.357
282904.000			-58.930			-5.357
283004.000			-58.930			-5.357
283105.000			-58.929			-5.357
283203.000			-58.929			-5.357
283304.000			-58.929			-5.357
283403.000			-58.928			-5.357
283504.000			-58.928			-5.357
283605.000			-58.927			-5.357
283704.000			-58.927			-5.357
283804.000			-58.927			-5.357
283905.000			-58.927			-5.357
284004.000			-58.926			-5.357
284104.000			-58.925			-5.357
284205.000			-58.924			-5.357
284303.000			-58.924			-5.357
284404.000			-58.925			-5.357
284505.000			-58.925			-5.357
284604.000			-58.923			-5.357
284704.000			-58.922			-5.357
284805.000			-58.922			-5.357
284904.000			-58.922			-5.357
285004.000			-58.922			-5.357
285105.000			-58.922			-5.357
285203.000			-58.921			-5.356
285304.000			-58.919			-5.356
285404.000			-58.919			-5.356
285504.000			-58.920			-5.356
285604.000			-58.920			-5.356
285705.000			-58.919			-5.356
285804.000			-58.918			-5.356
285904.000			-58.917			-5.356
286005.000			-58.918			-5.356
286104.000			-58.917			-5.356
286204.000			-58.915			-5.356
286304.000			-58.915			-5.356
286404.000			-58.916			-5.356
286503.000			-58.915			-5.356
286605.000			-58.915			-5.356
286704.000			-58.914			-5.356
286805.000			-58.914			-5.356
286904.000			-58.913			-5.356
287004.000			-58.912			-5.356
287105.000			-58.912			-5.356
287204.000			-58.913			-5.356
287304.000			-58.911			-5.356
287404.000			-58.911			-5.356
287504.000			-58.911			-5.356
287604.000			-58.910			-5.355
287705.000			-58.909			-5.355
287804.000			-58.911			-5.356
287904.000			-58.910			-5.355
288005.000			-58.909			-5.355
288104.000			-58.908			-5.355
288204.000			-58.909			-5.355
288304.000			-58.908			-5.355
288404.000			-58.907			-5.355
288503.000			-58.907			-5.355
288605.000			-58.906			-5.355
288704.000			-58.907			-5.355
288804.000			-58.905			-5.355
288905.000			-58.905			-5.355
289004.000			-58.905			-5.355
289104.000			-58.905			-5.355
289205.000			-58.905			-5.355
289304.000			-58.904			-5.355
289403.000			-58.903			-5.355
289505.000			-58.902			-5.355
289604.000			-58.902			-5.355
289704.000			-58.903			-5.355
289805.000			-58.902			-5.355
289904.000			-58.901			-5.355
290005.000			-58.901			-5.355
290104.000			-58.901			-5.355
290204.000			-58.900			-5.355
290304.000			-58.900			-5.355
290404.000			-58.898			-5.354
290503.000			-58.898			-5.354
290605.000			-58.898			-5.354
290704.000			-58.899			-5.354
290804.000			-58.898			-5.354
290905.000			-58.898			-5.354
291004.000			-58.896			-5.354
291104.000			-58.896			-5.354
291205.000			-58.896			-5.354
291304.000			-58.895			-5.354
291403.000			-58.894			-5.354
291505.000			-58.893			-5.354
291603.000			-58.894			-5.354
291704.000			-58.894			-5.354
291805.000			-58.894			-5.354
291904.000			-58.894			-5.354
292004.000			-58.893			-5.354
292105.000			-58.891			-5.354
292204.000			-58.892			-5.354
292304.000			-58.892			-5.354
292405.000			-58.890			-5.354
292503.000			-58.890			-5.354
292604.000			-58.890			-5.354
292705.000			-58.889			-5.354
292804.000			-58.889			-5.354
292904.000			-58.888			-5.353
293004.000			-58.888			-5.353
293104.000			-58.888			-5.353
293205.000			-58.887			-5.353
293304.000			-58.886			-5.353
293404.000			-58.887			-5.353
293505.000			-58.886			-5.353
293603.000			-58.885			-5.353
293704.000			-58.886			-5.353
293805.000			-58.886			-5.353
293904.000			-58.887			-5.353
294004.000			-58.885			-5.353
294105.000			-58.884			-5.353
294204.000			-58.883			-5.353
294304.000			-58.884			-5.353
294405.000			-58.883			-5.353
294504.000			-58.882			-5.353
294604.000			-58.882			-5.353
294704.000			-58.882			-5.353
294804.000			-58.882			-5.353
294904.000			-58.882			-5.353
295005.000			-58.880			-5.353
295104.000			-58.878			-5.353
295204.000			-58.879			-5.353
295305.000			-58.879			-5.353
295404.000			-58.879			-5.353
295504.000			-58.879			-5.353
295605.000			-58.877			-5.352
295704.000			-58.877			-5.352
295803.000			-58.877			-5.352
295905.000			-58.877			-5.352
296004.000			-58.875			-5.352
296104.000			-58.875			-5.352
296205.000			-58.875			-5.352
296304.000			-58.874			-5.352
296405.000			-58.874			-5.352
296504.000			-58.874			-5.352
296604.000			-58.873			-5.352
296705.000			-58.874			-5.352
296804.000			-58.873			-5.352
296903.000			-58.873			-5.352
297005.000			-58.873			-5.352
297103.000			-58.872			-5.352
297204.000			-58.871			-5.352
297305.000			-58.870			-5.352
297404.000			-58.871			-5.352
297504.000			-58.870			-5.352
297605.000			-58.869			-5.352
297704.000			-58.868			-5.352
297804.000			-58.868			-5.352
297905.000			-58.868			-5.352
298003.000			-58.869			-5.352
298104.000			-58.868			-5.352
298205.000			-58.867			-5.352
298304.000			-58.868			-5.352
298404.000			-58.867			-5.352
298505.000			-58.867			-5.352
298604.000			-58.865			-5.351
298704.000			-58.865			-5.351
298805.000			-58.865			-5.351
298904.000			-58.864			-5.351
299004.000			-58.863			-5.351
299104.000			-58.863			-5.351
299204.000			-58.864			-5.351
299304.000			-58.863			-5.351
299404.000			-58.863			-5.351
299504.000			-58.862			-5.351
299605.000			-58.863			-5.351
299704.000			-58.862			-5.351
299804.000			-58.862			-5.351
299905.000			-58.862			-5.351
