# Acquired on 26/01/2024 15:21:37 
# SPIDER: Creep_6mm_HM077x145x38AA-2
# CREEP MEASUREMENT

# time [ms]		force [N]		stiffness [N/mm]
0.000			-30.787			-5.131
104.000			-31.516			-5.253
204.000			-31.647			-5.275
305.000			-31.555			-5.259
404.000			-31.476			-5.246
504.000			-31.416			-5.236
605.000			-31.318			-5.220
704.000			-31.276			-5.213
804.000			-31.240			-5.207
905.000			-31.205			-5.201
1004.000			-31.174			-5.196
1103.000			-31.145			-5.191
1205.000			-31.117			-5.186
1304.000			-31.094			-5.182
1404.000			-31.047			-5.174
1505.000			-31.026			-5.171
1603.000			-31.006			-5.168
1704.000			-30.987			-5.165
1805.000			-30.967			-5.161
1904.000			-30.950			-5.158
2004.000			-30.933			-5.155
2105.000			-30.898			-5.150
2204.000			-30.882			-5.147
2303.000			-30.868			-5.145
2405.000			-30.852			-5.142
2504.000			-30.839			-5.140
2604.000			-30.827			-5.138
2705.000			-30.813			-5.136
2803.000			-30.788			-5.131
2904.000			-30.775			-5.129
3005.000			-30.763			-5.127
3104.000			-30.752			-5.125
3204.000			-30.741			-5.124
3304.000			-30.731			-5.122
3404.000			-30.720			-5.120
3503.000			-30.700			-5.117
3604.000			-30.690			-5.115
3704.000			-30.680			-5.113
3805.000			-30.671			-5.112
3904.000			-30.662			-5.110
4003.000			-30.653			-5.109
4105.000			-30.644			-5.107
4204.000			-30.635			-5.106
4304.000			-30.618			-5.103
4405.000			-30.610			-5.102
4504.000			-30.602			-5.100
4604.000			-30.594			-5.099
4704.000			-30.586			-5.098
4804.000			-30.577			-5.096
4904.000			-30.570			-5.095
5005.000			-30.556			-5.093
5104.000			-30.548			-5.091
5203.000			-30.542			-5.090
5305.000			-30.535			-5.089
5404.000			-30.529			-5.088
5504.000			-30.522			-5.087
5605.000			-30.514			-5.086
5704.000			-30.502			-5.084
5804.000			-30.496			-5.083
5904.000			-30.489			-5.082
6004.000			-30.483			-5.080
6104.000			-30.476			-5.079
6205.000			-30.471			-5.078
6304.000			-30.465			-5.078
6404.000			-30.458			-5.076
6505.000			-30.448			-5.075
6603.000			-30.441			-5.074
6705.000			-30.436			-5.073
6804.000			-30.431			-5.072
6904.000			-30.426			-5.071
7005.000			-30.420			-5.070
7103.000			-30.414			-5.069
7204.000			-30.404			-5.067
7305.000			-30.398			-5.066
7404.000			-30.392			-5.065
7504.000			-30.387			-5.065
7605.000			-30.382			-5.064
7704.000			-30.378			-5.063
7803.000			-30.374			-5.062
7905.000			-30.365			-5.061
8004.000			-30.359			-5.060
8104.000			-30.354			-5.059
8205.000			-30.349			-5.058
8303.000			-30.345			-5.057
8404.000			-30.340			-5.057
8505.000			-30.335			-5.056
8604.000			-30.327			-5.055
8704.000			-30.324			-5.054
8805.000			-30.318			-5.053
8904.000			-30.314			-5.052
9003.000			-30.310			-5.052
9105.000			-30.306			-5.051
9204.000			-30.300			-5.050
9304.000			-30.295			-5.049
9405.000			-30.288			-5.048
9504.000			-30.284			-5.047
9604.000			-30.280			-5.047
9703.000			-30.276			-5.046
9804.000			-30.273			-5.045
9905.000			-30.268			-5.045
10004.000			-30.263			-5.044
10104.000			-30.257			-5.043
10204.000			-30.253			-5.042
10304.000			-30.249			-5.041
10404.000			-30.244			-5.041
10505.000			-30.240			-5.040
10604.000			-30.237			-5.039
10704.000			-30.234			-5.039
10805.000			-30.227			-5.038
10903.000			-30.223			-5.037
11004.000			-30.220			-5.037
11105.000			-30.216			-5.036
11204.000			-30.213			-5.036
11304.000			-30.210			-5.035
11404.000			-30.205			-5.034
11504.000			-30.199			-5.033
11604.000			-30.196			-5.033
11705.000			-30.192			-5.032
11804.000			-30.189			-5.032
11904.000			-30.186			-5.031
12005.000			-30.183			-5.031
12103.000			-30.179			-5.030
12204.000			-30.176			-5.029
12305.000			-30.169			-5.028
12404.000			-30.167			-5.028
12504.000			-30.164			-5.027
12604.000			-30.159			-5.027
12704.000			-30.155			-5.026
12803.000			-30.154			-5.026
12905.000			-30.150			-5.025
13004.000			-30.145			-5.024
13105.000			-30.141			-5.024
13204.000			-30.138			-5.023
13303.000			-30.135			-5.023
13405.000			-30.131			-5.022
13504.000			-30.128			-5.021
13604.000			-30.126			-5.021
13705.000			-30.121			-5.020
13804.000			-30.117			-5.020
13904.000			-30.114			-5.019
14004.000			-30.111			-5.019
14104.000			-30.109			-5.018
14204.000			-30.105			-5.018
14305.000			-30.103			-5.017
14404.000			-30.101			-5.017
14503.000			-30.095			-5.016
14605.000			-30.093			-5.016
14704.000			-30.090			-5.015
14804.000			-30.087			-5.015
14905.000			-30.084			-5.014
15004.000			-30.082			-5.014
15104.000			-30.079			-5.013
15204.000			-30.073			-5.012
15304.000			-30.071			-5.012
15404.000			-30.068			-5.011
15505.000			-30.066			-5.011
15604.000			-30.064			-5.011
15704.000			-30.062			-5.010
15805.000			-30.059			-5.010
15903.000			-30.053			-5.009
16004.000			-30.051			-5.009
16105.000			-30.048			-5.008
16204.000			-30.045			-5.008
16305.000			-30.043			-5.007
16403.000			-30.040			-5.007
16504.000			-30.039			-5.006
16605.000			-30.033			-5.006
16704.000			-30.031			-5.005
16804.000			-30.028			-5.005
16905.000			-30.027			-5.005
17004.000			-30.025			-5.004
17103.000			-30.021			-5.003
17205.000			-30.018			-5.003
17304.000			-30.016			-5.003
17404.000			-30.012			-5.002
17505.000			-30.009			-5.002
17604.000			-30.007			-5.001
17704.000			-30.005			-5.001
17804.000			-30.003			-5.001
17904.000			-30.001			-5.000
18004.000			-29.999			-5.000
18105.000			-29.994			-4.999
18204.000			-29.991			-4.999
18303.000			-29.989			-4.998
18405.000			-29.987			-4.998
18504.000			-29.985			-4.998
18604.000			-29.983			-4.997
18705.000			-29.981			-4.997
18804.000			-29.976			-4.996
18904.000			-29.974			-4.996
19005.000			-29.972			-4.995
19104.000			-29.971			-4.995
19203.000			-29.969			-4.995
19305.000			-29.966			-4.994
19404.000			-29.964			-4.994
19505.000			-29.959			-4.993
19604.000			-29.957			-4.993
19704.000			-29.956			-4.993
19805.000			-29.954			-4.992
19903.000			-29.951			-4.992
20004.000			-29.949			-4.991
20105.000			-29.947			-4.991
20204.000			-29.946			-4.991
20304.000			-29.941			-4.990
20405.000			-29.939			-4.990
20504.000			-29.936			-4.989
20603.000			-29.934			-4.989
20705.000			-29.933			-4.989
20804.000			-29.932			-4.989
20904.000			-29.929			-4.988
21005.000			-29.925			-4.988
21104.000			-29.924			-4.987
21204.000			-29.921			-4.987
21304.000			-29.919			-4.986
21404.000			-29.917			-4.986
21504.000			-29.915			-4.986
21605.000			-29.913			-4.986
21704.000			-29.910			-4.985
21804.000			-29.909			-4.985
21905.000			-29.906			-4.984
22003.000			-29.904			-4.984
22104.000			-29.902			-4.984
22205.000			-29.899			-4.983
22304.000			-29.898			-4.983
22404.000			-29.897			-4.983
22504.000			-29.893			-4.982
22604.000			-29.891			-4.982
22703.000			-29.890			-4.982
22804.000			-29.887			-4.981
22904.000			-29.885			-4.981
23005.000			-29.884			-4.981
23104.000			-29.883			-4.981
23204.000			-29.878			-4.980
23305.000			-29.876			-4.979
23403.000			-29.874			-4.979
23504.000			-29.873			-4.979
23605.000			-29.871			-4.979
23704.000			-29.868			-4.978
23804.000			-29.867			-4.978
23905.000			-29.864			-4.977
24004.000			-29.862			-4.977
24103.000			-29.861			-4.977
24205.000			-29.860			-4.977
24304.000			-29.858			-4.976
24404.000			-29.856			-4.976
24505.000			-29.853			-4.975
24604.000			-29.850			-4.975
24704.000			-29.848			-4.975
24804.000			-29.846			-4.974
24904.000			-29.843			-4.974
25004.000			-29.843			-4.974
25105.000			-29.842			-4.974
25204.000			-29.840			-4.973
25304.000			-29.839			-4.973
25405.000			-29.836			-4.973
25503.000			-29.834			-4.972
25604.000			-29.832			-4.972
25705.000			-29.831			-4.972
25804.000			-29.829			-4.971
25905.000			-29.827			-4.971
26004.000			-29.826			-4.971
26104.000			-29.823			-4.970
26204.000			-29.820			-4.970
26304.000			-29.819			-4.970
26404.000			-29.816			-4.969
26505.000			-29.816			-4.969
26604.000			-29.815			-4.969
26704.000			-29.812			-4.969
26805.000			-29.810			-4.968
26903.000			-29.809			-4.968
27004.000			-29.807			-4.968
27105.000			-29.804			-4.967
27204.000			-29.803			-4.967
27304.000			-29.802			-4.967
27405.000			-29.801			-4.967
27504.000			-29.798			-4.966
27603.000			-29.796			-4.966
27705.000			-29.795			-4.966
27804.000			-29.793			-4.966
27904.000			-29.791			-4.965
28005.000			-29.790			-4.965
28104.000			-29.788			-4.965
28204.000			-29.787			-4.965
28304.000			-29.785			-4.964
28404.000			-29.783			-4.964
28504.000			-29.781			-4.964
28605.000			-29.780			-4.963
28704.000			-29.778			-4.963
28804.000			-29.778			-4.963
28905.000			-29.775			-4.963
29003.000			-29.772			-4.962
29105.000			-29.772			-4.962
29204.000			-29.770			-4.962
29304.000			-29.768			-4.961
29405.000			-29.766			-4.961
29504.000			-29.764			-4.961
29604.000			-29.763			-4.961
29704.000			-29.760			-4.960
29804.000			-29.759			-4.960
29903.000			-29.758			-4.960
30005.000			-29.757			-4.959
30104.000			-29.754			-4.959
30204.000			-29.753			-4.959
30305.000			-29.753			-4.959
30404.000			-29.751			-4.959
30504.000			-29.747			-4.958
30604.000			-29.746			-4.958
30704.000			-29.745			-4.958
30804.000			-29.744			-4.957
30905.000			-29.742			-4.957
31004.000			-29.741			-4.957
31103.000			-29.739			-4.957
31205.000			-29.737			-4.956
31304.000			-29.736			-4.956
31404.000			-29.736			-4.956
31505.000			-29.733			-4.955
31604.000			-29.732			-4.955
31704.000			-29.730			-4.955
31804.000			-29.729			-4.955
31904.000			-29.726			-4.954
32003.000			-29.725			-4.954
32105.000			-29.723			-4.954
32204.000			-29.722			-4.954
32305.000			-29.720			-4.953
32404.000			-29.719			-4.953
32503.000			-29.717			-4.953
32605.000			-29.716			-4.953
32704.000			-29.715			-4.952
32804.000			-29.714			-4.952
32905.000			-29.712			-4.952
33004.000			-29.710			-4.952
33104.000			-29.710			-4.952
33204.000			-29.709			-4.951
33304.000			-29.707			-4.951
33404.000			-29.705			-4.951
33505.000			-29.703			-4.951
33604.000			-29.702			-4.950
33704.000			-29.700			-4.950
33805.000			-29.699			-4.950
33903.000			-29.698			-4.950
34004.000			-29.697			-4.950
34105.000			-29.695			-4.949
34204.000			-29.694			-4.949
34304.000			-29.692			-4.949
34405.000			-29.691			-4.948
34504.000			-29.690			-4.948
34603.000			-29.688			-4.948
34705.000			-29.687			-4.948
34804.000			-29.685			-4.948
34904.000			-29.684			-4.947
35005.000			-29.682			-4.947
35104.000			-29.681			-4.947
35204.000			-29.680			-4.947
35303.000			-29.679			-4.946
35404.000			-29.677			-4.946
35503.000			-29.675			-4.946
35604.000			-29.674			-4.946
35704.000			-29.673			-4.945
35805.000			-29.671			-4.945
35904.000			-29.670			-4.945
36004.000			-29.670			-4.945
36105.000			-29.668			-4.945
36203.000			-29.667			-4.944
36304.000			-29.664			-4.944
36405.000			-29.663			-4.944
36504.000			-29.662			-4.944
36604.000			-29.660			-4.943
36705.000			-29.659			-4.943
36804.000			-29.659			-4.943
36903.000			-29.657			-4.943
37005.000			-29.654			-4.942
37104.000			-29.654			-4.942
37204.000			-29.652			-4.942
37305.000			-29.651			-4.942
37404.000			-29.650			-4.942
37504.000			-29.650			-4.942
37604.000			-29.649			-4.941
37704.000			-29.648			-4.941
37804.000			-29.646			-4.941
37905.000			-29.643			-4.941
38004.000			-29.642			-4.940
38104.000			-29.641			-4.940
38205.000			-29.641			-4.940
38303.000			-29.639			-4.940
38404.000			-29.638			-4.940
38505.000			-29.636			-4.939
38604.000			-29.635			-4.939
38705.000			-29.633			-4.939
38804.000			-29.633			-4.939
38904.000			-29.632			-4.939
39004.000			-29.630			-4.938
39104.000			-29.630			-4.938
39204.000			-29.627			-4.938
39305.000			-29.626			-4.938
39404.000			-29.625			-4.937
39504.000			-29.624			-4.937
39605.000			-29.624			-4.937
39703.000			-29.623			-4.937
39804.000			-29.621			-4.937
39905.000			-29.618			-4.936
40004.000			-29.618			-4.936
40104.000			-29.617			-4.936
40205.000			-29.616			-4.936
40304.000			-29.614			-4.936
40403.000			-29.613			-4.936
40505.000			-29.613			-4.935
40604.000			-29.612			-4.935
40704.000			-29.610			-4.935
40805.000			-29.609			-4.935
40904.000			-29.608			-4.935
41004.000			-29.606			-4.934
41104.000			-29.605			-4.934
41204.000			-29.603			-4.934
41304.000			-29.602			-4.934
41405.000			-29.601			-4.934
41504.000			-29.601			-4.933
41603.000			-29.600			-4.933
41705.000			-29.598			-4.933
41804.000			-29.597			-4.933
41905.000			-29.596			-4.933
42004.000			-29.596			-4.933
42104.000			-29.593			-4.932
42205.000			-29.592			-4.932
42303.000			-29.592			-4.932
42404.000			-29.589			-4.931
42504.000			-29.588			-4.931
42604.000			-29.588			-4.931
42704.000			-29.587			-4.931
42805.000			-29.585			-4.931
42904.000			-29.584			-4.931
43004.000			-29.583			-4.931
43105.000			-29.582			-4.930
43203.000			-29.581			-4.930
43304.000			-29.579			-4.930
43405.000			-29.578			-4.930
43504.000			-29.578			-4.930
43604.000			-29.576			-4.929
43705.000			-29.574			-4.929
43804.000			-29.574			-4.929
43903.000			-29.573			-4.929
44005.000			-29.571			-4.929
44104.000			-29.570			-4.928
44204.000			-29.569			-4.928
44305.000			-29.568			-4.928
44404.000			-29.567			-4.928
44504.000			-29.566			-4.928
44604.000			-29.566			-4.928
44704.000			-29.564			-4.927
44804.000			-29.563			-4.927
44904.000			-29.563			-4.927
45004.000			-29.561			-4.927
45105.000			-29.559			-4.926
45204.000			-29.558			-4.926
45303.000			-29.558			-4.926
45405.000			-29.556			-4.926
45504.000			-29.555			-4.926
45604.000			-29.554			-4.926
45705.000			-29.553			-4.926
45804.000			-29.552			-4.925
45904.000			-29.551			-4.925
46004.000			-29.550			-4.925
46104.000			-29.550			-4.925
46204.000			-29.549			-4.925
46305.000			-29.548			-4.925
46404.000			-29.546			-4.924
46504.000			-29.544			-4.924
46605.000			-29.543			-4.924
46703.000			-29.541			-4.924
46804.000			-29.541			-4.924
46905.000			-29.541			-4.924
47004.000			-29.540			-4.923
47104.000			-29.539			-4.923
47205.000			-29.537			-4.923
47304.000			-29.536			-4.923
47403.000			-29.535			-4.923
47505.000			-29.535			-4.922
47604.000			-29.534			-4.922
47704.000			-29.533			-4.922
47805.000			-29.533			-4.922
47904.000			-29.530			-4.922
48004.000			-29.530			-4.922
48103.000			-29.529			-4.921
48204.000			-29.528			-4.921
48305.000			-29.527			-4.921
48404.000			-29.526			-4.921
48504.000			-29.524			-4.921
48605.000			-29.523			-4.920
48704.000			-29.522			-4.920
48803.000			-29.521			-4.920
48905.000			-29.519			-4.920
49004.000			-29.518			-4.920
49104.000			-29.518			-4.920
49205.000			-29.517			-4.919
49304.000			-29.517			-4.919
49404.000			-29.514			-4.919
49504.000			-29.513			-4.919
49604.000			-29.513			-4.919
49704.000			-29.511			-4.919
49805.000			-29.511			-4.918
49904.000			-29.510			-4.918
50004.000			-29.509			-4.918
50105.000			-29.507			-4.918
50203.000			-29.506			-4.918
50304.000			-29.505			-4.918
50405.000			-29.504			-4.917
50504.000			-29.503			-4.917
50604.000			-29.503			-4.917
50704.000			-29.502			-4.917
50804.000			-29.502			-4.917
50904.000			-29.500			-4.917
51005.000			-29.500			-4.917
51104.000			-29.498			-4.916
51204.000			-29.497			-4.916
51305.000			-29.496			-4.916
51403.000			-29.495			-4.916
51505.000			-29.495			-4.916
51603.000			-29.493			-4.915
51704.000			-29.491			-4.915
51805.000			-29.491			-4.915
51904.000			-29.490			-4.915
52004.000			-29.489			-4.915
52104.000			-29.488			-4.915
52204.000			-29.487			-4.915
52303.000			-29.486			-4.914
52405.000			-29.485			-4.914
52504.000			-29.485			-4.914
52604.000			-29.484			-4.914
52705.000			-29.482			-4.914
52804.000			-29.482			-4.914
52904.000			-29.482			-4.914
53004.000			-29.479			-4.913
53104.000			-29.479			-4.913
53204.000			-29.478			-4.913
53305.000			-29.477			-4.913
53404.000			-29.476			-4.913
53504.000			-29.475			-4.913
53605.000			-29.473			-4.912
53703.000			-29.473			-4.912
53804.000			-29.474			-4.912
53905.000			-29.472			-4.912
54004.000			-29.471			-4.912
54104.000			-29.470			-4.912
54205.000			-29.469			-4.912
54304.000			-29.469			-4.911
54403.000			-29.467			-4.911
54505.000			-29.466			-4.911
54604.000			-29.465			-4.911
54705.000			-29.465			-4.911
54804.000			-29.464			-4.911
54904.000			-29.463			-4.911
55005.000			-29.462			-4.910
55103.000			-29.461			-4.910
55204.000			-29.461			-4.910
55305.000			-29.459			-4.910
55404.000			-29.459			-4.910
55504.000			-29.458			-4.910
55605.000			-29.457			-4.909
55704.000			-29.456			-4.909
55803.000			-29.455			-4.909
55905.000			-29.455			-4.909
56004.000			-29.453			-4.909
56104.000			-29.451			-4.909
56205.000			-29.451			-4.909
56304.000			-29.452			-4.909
56404.000			-29.451			-4.908
56504.000			-29.450			-4.908
56604.000			-29.448			-4.908
56704.000			-29.447			-4.908
56805.000			-29.447			-4.908
56904.000			-29.446			-4.908
57004.000			-29.445			-4.907
57105.000			-29.444			-4.907
57203.000			-29.443			-4.907
57304.000			-29.443			-4.907
57405.000			-29.441			-4.907
57504.000			-29.440			-4.907
57604.000			-29.439			-4.906
57704.000			-29.438			-4.906
57804.000			-29.438			-4.906
57903.000			-29.437			-4.906
58004.000			-29.435			-4.906
58104.000			-29.435			-4.906
58205.000			-29.434			-4.906
58304.000			-29.434			-4.906
58404.000			-29.432			-4.905
58505.000			-29.432			-4.905
58603.000			-29.430			-4.905
58704.000			-29.430			-4.905
58805.000			-29.428			-4.905
58904.000			-29.428			-4.905
59004.000			-29.427			-4.905
59105.000			-29.426			-4.904
59204.000			-29.426			-4.904
59303.000			-29.425			-4.904
59405.000			-29.425			-4.904
59504.000			-29.423			-4.904
59604.000			-29.422			-4.904
59705.000			-29.422			-4.904
59804.000			-29.421			-4.903
59904.000			-29.420			-4.903
60004.000			-29.420			-4.903
60104.000			-29.419			-4.903
60204.000			-29.419			-4.903
60305.000			-29.416			-4.903
60404.000			-29.416			-4.903
60504.000			-29.415			-4.903
60605.000			-29.415			-4.902
60703.000			-29.414			-4.902
60804.000			-29.412			-4.902
60905.000			-29.413			-4.902
61004.000			-29.410			-4.902
61105.000			-29.410			-4.902
61204.000			-29.409			-4.902
61304.000			-29.409			-4.901
61404.000			-29.408			-4.901
61504.000			-29.407			-4.901
61604.000			-29.407			-4.901
61705.000			-29.405			-4.901
61804.000			-29.404			-4.901
61903.000			-29.403			-4.900
62005.000			-29.402			-4.900
62104.000			-29.401			-4.900
62204.000			-29.401			-4.900
62305.000			-29.401			-4.900
62404.000			-29.399			-4.900
62504.000			-29.397			-4.900
62604.000			-29.396			-4.899
62704.000			-29.396			-4.899
62804.000			-29.396			-4.899
62905.000			-29.395			-4.899
63004.000			-29.395			-4.899
63104.000			-29.393			-4.899
63205.000			-29.392			-4.899
63303.000			-29.392			-4.899
63404.000			-29.391			-4.898
63505.000			-29.390			-4.898
63604.000			-29.389			-4.898
63704.000			-29.389			-4.898
63805.000			-29.388			-4.898
63904.000			-29.387			-4.898
64004.000			-29.386			-4.898
64105.000			-29.387			-4.898
64203.000			-29.386			-4.898
64305.000			-29.384			-4.897
64404.000			-29.384			-4.897
64504.000			-29.384			-4.897
64605.000			-29.383			-4.897
64704.000			-29.381			-4.897
64804.000			-29.381			-4.897
64904.000			-29.380			-4.897
65004.000			-29.379			-4.897
65104.000			-29.378			-4.896
65205.000			-29.378			-4.896
65304.000			-29.379			-4.896
65404.000			-29.376			-4.896
65505.000			-29.376			-4.896
65603.000			-29.375			-4.896
65704.000			-29.374			-4.896
65805.000			-29.374			-4.896
65904.000			-29.373			-4.896
66004.000			-29.373			-4.895
66105.000			-29.369			-4.895
66204.000			-29.369			-4.895
66303.000			-29.369			-4.895
66405.000			-29.369			-4.895
66504.000			-29.368			-4.895
66604.000			-29.367			-4.895
66705.000			-29.366			-4.894
66804.000			-29.365			-4.894
66904.000			-29.364			-4.894
67004.000			-29.365			-4.894
67104.000			-29.364			-4.894
67204.000			-29.363			-4.894
67304.000			-29.362			-4.894
67404.000			-29.360			-4.893
67505.000			-29.360			-4.893
67604.000			-29.358			-4.893
67703.000			-29.359			-4.893
67805.000			-29.358			-4.893
67904.000			-29.357			-4.893
68004.000			-29.356			-4.893
68105.000			-29.355			-4.893
68204.000			-29.355			-4.892
68304.000			-29.353			-4.892
68404.000			-29.353			-4.892
68504.000			-29.352			-4.892
68603.000			-29.352			-4.892
68705.000			-29.352			-4.892
68804.000			-29.351			-4.892
68904.000			-29.350			-4.892
69005.000			-29.349			-4.891
69104.000			-29.348			-4.891
69204.000			-29.347			-4.891
69304.000			-29.346			-4.891
69404.000			-29.345			-4.891
69504.000			-29.346			-4.891
69605.000			-29.345			-4.891
69704.000			-29.344			-4.891
69804.000			-29.343			-4.890
69905.000			-29.343			-4.890
70003.000			-29.341			-4.890
70104.000			-29.340			-4.890
70205.000			-29.340			-4.890
70304.000			-29.339			-4.890
70404.000			-29.338			-4.890
70504.000			-29.337			-4.890
70604.000			-29.337			-4.890
70703.000			-29.336			-4.889
70804.000			-29.335			-4.889
70904.000			-29.335			-4.889
71005.000			-29.335			-4.889
71104.000			-29.334			-4.889
71204.000			-29.333			-4.889
71305.000			-29.332			-4.889
71403.000			-29.332			-4.889
71504.000			-29.331			-4.889
71605.000			-29.330			-4.888
71704.000			-29.330			-4.888
71804.000			-29.329			-4.888
71905.000			-29.328			-4.888
72004.000			-29.328			-4.888
72103.000			-29.328			-4.888
72205.000			-29.327			-4.888
72304.000			-29.325			-4.888
72404.000			-29.326			-4.888
72505.000			-29.325			-4.888
72604.000			-29.324			-4.887
72704.000			-29.324			-4.887
72804.000			-29.324			-4.887
72904.000			-29.322			-4.887
73004.000			-29.321			-4.887
73105.000			-29.322			-4.887
73204.000			-29.320			-4.887
73304.000			-29.321			-4.887
73405.000			-29.319			-4.887
73503.000			-29.319			-4.886
73604.000			-29.318			-4.886
73705.000			-29.318			-4.886
73804.000			-29.317			-4.886
73905.000			-29.316			-4.886
74004.000			-29.317			-4.886
74104.000			-29.315			-4.886
74204.000			-29.313			-4.885
74304.000			-29.313			-4.885
74404.000			-29.313			-4.885
74505.000			-29.313			-4.886
74604.000			-29.312			-4.885
74704.000			-29.311			-4.885
74805.000			-29.310			-4.885
74903.000			-29.309			-4.885
75004.000			-29.309			-4.885
75105.000			-29.308			-4.885
75204.000			-29.307			-4.885
75304.000			-29.307			-4.884
75405.000			-29.306			-4.884
75504.000			-29.305			-4.884
75603.000			-29.306			-4.884
75705.000			-29.306			-4.884
75804.000			-29.305			-4.884
75904.000			-29.304			-4.884
76005.000			-29.302			-4.884
76104.000			-29.301			-4.884
76204.000			-29.302			-4.884
76304.000			-29.298			-4.883
76404.000			-29.298			-4.883
76504.000			-29.297			-4.883
76605.000			-29.298			-4.883
76704.000			-29.297			-4.883
76804.000			-29.295			-4.883
76905.000			-29.294			-4.882
77003.000			-29.294			-4.882
77105.000			-29.293			-4.882
77204.000			-29.293			-4.882
77304.000			-29.292			-4.882
77405.000			-29.293			-4.882
77504.000			-29.292			-4.882
77604.000			-29.291			-4.882
77705.000			-29.290			-4.882
77804.000			-29.289			-4.881
77903.000			-29.288			-4.881
78005.000			-29.288			-4.881
78104.000			-29.287			-4.881
78204.000			-29.287			-4.881
78305.000			-29.286			-4.881
78404.000			-29.284			-4.881
78504.000			-29.284			-4.881
78604.000			-29.282			-4.880
78704.000			-29.283			-4.880
78804.000			-29.282			-4.880
78905.000			-29.282			-4.880
79004.000			-29.282			-4.880
79104.000			-29.281			-4.880
79205.000			-29.280			-4.880
79303.000			-29.279			-4.880
79404.000			-29.279			-4.880
79505.000			-29.279			-4.880
79604.000			-29.278			-4.880
79704.000			-29.278			-4.880
79805.000			-29.277			-4.880
79904.000			-29.276			-4.879
80004.000			-29.274			-4.879
80105.000			-29.274			-4.879
80203.000			-29.273			-4.879
80305.000			-29.273			-4.879
80404.000			-29.272			-4.879
80504.000			-29.272			-4.879
80605.000			-29.270			-4.878
80704.000			-29.270			-4.878
80804.000			-29.270			-4.878
80904.000			-29.269			-4.878
81004.000			-29.268			-4.878
81104.000			-29.267			-4.878
81205.000			-29.267			-4.878
81304.000			-29.268			-4.878
81404.000			-29.264			-4.877
81505.000			-29.265			-4.877
81603.000			-29.264			-4.877
81704.000			-29.263			-4.877
81805.000			-29.263			-4.877
81904.000			-29.262			-4.877
82004.000			-29.262			-4.877
82105.000			-29.262			-4.877
82204.000			-29.261			-4.877
82303.000			-29.260			-4.877
82405.000			-29.260			-4.877
82504.000			-29.259			-4.877
82604.000			-29.258			-4.876
82705.000			-29.257			-4.876
82804.000			-29.256			-4.876
82904.000			-29.256			-4.876
83004.000			-29.256			-4.876
83104.000			-29.255			-4.876
83204.000			-29.255			-4.876
83304.000			-29.254			-4.876
83404.000			-29.254			-4.876
83505.000			-29.253			-4.875
83604.000			-29.252			-4.875
83703.000			-29.251			-4.875
83805.000			-29.251			-4.875
83904.000			-29.251			-4.875
84004.000			-29.250			-4.875
84105.000			-29.250			-4.875
84204.000			-29.250			-4.875
84304.000			-29.247			-4.875
84404.000			-29.247			-4.875
84504.000			-29.248			-4.875
84604.000			-29.246			-4.874
84705.000			-29.245			-4.874
84804.000			-29.244			-4.874
84904.000			-29.245			-4.874
85005.000			-29.244			-4.874
85103.000			-29.242			-4.874
85204.000			-29.242			-4.874
85305.000			-29.242			-4.874
85404.000			-29.241			-4.874
85504.000			-29.241			-4.874
85605.000			-29.241			-4.874
85704.000			-29.240			-4.873
85803.000			-29.239			-4.873
85905.000			-29.238			-4.873
86004.000			-29.238			-4.873
86104.000			-29.237			-4.873
86205.000			-29.236			-4.873
86304.000			-29.237			-4.873
86404.000			-29.236			-4.873
86503.000			-29.234			-4.872
86604.000			-29.234			-4.872
86705.000			-29.232			-4.872
86804.000			-29.233			-4.872
86904.000			-29.233			-4.872
87005.000			-29.232			-4.872
87104.000			-29.232			-4.872
87203.000			-29.229			-4.872
87305.000			-29.229			-4.871
87404.000			-29.230			-4.872
87504.000			-29.229			-4.872
87605.000			-29.228			-4.871
87704.000			-29.228			-4.871
87804.000			-29.228			-4.871
87904.000			-29.225			-4.871
88004.000			-29.226			-4.871
88103.000			-29.226			-4.871
88205.000			-29.225			-4.871
88304.000			-29.224			-4.871
88404.000			-29.223			-4.871
88505.000			-29.222			-4.870
88604.000			-29.223			-4.870
88704.000			-29.221			-4.870
88804.000			-29.220			-4.870
88904.000			-29.220			-4.870
89004.000			-29.220			-4.870
89105.000			-29.220			-4.870
89204.000			-29.219			-4.870
89304.000			-29.218			-4.870
89405.000			-29.217			-4.870
89503.000			-29.217			-4.869
89604.000			-29.217			-4.869
89705.000			-29.216			-4.869
89804.000			-29.215			-4.869
89905.000			-29.215			-4.869
90004.000			-29.215			-4.869
90104.000			-29.214			-4.869
90204.000			-29.213			-4.869
90304.000			-29.211			-4.869
90404.000			-29.211			-4.869
90505.000			-29.212			-4.869
90604.000			-29.211			-4.869
90704.000			-29.210			-4.868
90805.000			-29.209			-4.868
90903.000			-29.208			-4.868
91004.000			-29.209			-4.868
91105.000			-29.208			-4.868
91204.000			-29.208			-4.868
91304.000			-29.208			-4.868
91405.000			-29.206			-4.868
91504.000			-29.206			-4.868
91603.000			-29.206			-4.868
91705.000			-29.205			-4.868
91804.000			-29.206			-4.868
91904.000			-29.206			-4.868
92005.000			-29.205			-4.868
92104.000			-29.205			-4.867
92204.000			-29.203			-4.867
92304.000			-29.203			-4.867
92404.000			-29.202			-4.867
92504.000			-29.201			-4.867
92605.000			-29.201			-4.867
92704.000			-29.200			-4.867
92804.000			-29.199			-4.867
92905.000			-29.200			-4.867
93003.000			-29.198			-4.866
93105.000			-29.198			-4.866
93204.000			-29.198			-4.866
93304.000			-29.198			-4.866
93405.000			-29.197			-4.866
93504.000			-29.196			-4.866
93604.000			-29.195			-4.866
93704.000			-29.195			-4.866
93804.000			-29.193			-4.866
93904.000			-29.194			-4.866
94005.000			-29.195			-4.866
94104.000			-29.194			-4.866
94204.000			-29.192			-4.865
94305.000			-29.191			-4.865
94403.000			-29.192			-4.865
94504.000			-29.190			-4.865
94605.000			-29.189			-4.865
94704.000			-29.189			-4.865
94804.000			-29.188			-4.865
94905.000			-29.187			-4.865
95004.000			-29.188			-4.865
95104.000			-29.187			-4.864
95205.000			-29.186			-4.864
95303.000			-29.186			-4.864
95404.000			-29.185			-4.864
95505.000			-29.185			-4.864
95604.000			-29.185			-4.864
95704.000			-29.184			-4.864
95805.000			-29.184			-4.864
95904.000			-29.183			-4.864
96003.000			-29.183			-4.864
96105.000			-29.181			-4.864
96204.000			-29.181			-4.863
96305.000			-29.181			-4.863
96404.000			-29.180			-4.863
96504.000			-29.180			-4.863
96605.000			-29.179			-4.863
96704.000			-29.179			-4.863
96804.000			-29.179			-4.863
96904.000			-29.178			-4.863
97004.000			-29.176			-4.863
97104.000			-29.176			-4.863
97205.000			-29.177			-4.863
97304.000			-29.177			-4.863
97404.000			-29.175			-4.862
97505.000			-29.174			-4.862
97603.000			-29.174			-4.862
97704.000			-29.174			-4.862
97805.000			-29.173			-4.862
97904.000			-29.172			-4.862
98004.000			-29.171			-4.862
98105.000			-29.170			-4.862
98204.000			-29.170			-4.862
98303.000			-29.170			-4.862
98405.000			-29.170			-4.862
98504.000			-29.169			-4.862
98604.000			-29.168			-4.861
98705.000			-29.168			-4.861
98804.000			-29.168			-4.861
98904.000			-29.167			-4.861
99004.000			-29.166			-4.861
99104.000			-29.166			-4.861
99204.000			-29.165			-4.861
99304.000			-29.166			-4.861
99404.000			-29.166			-4.861
99505.000			-29.165			-4.861
99604.000			-29.164			-4.861
99704.000			-29.163			-4.860
99805.000			-29.162			-4.860
99903.000			-29.163			-4.860
100004.000			-29.162			-4.860
100105.000			-29.161			-4.860
100204.000			-29.160			-4.860
100304.000			-29.160			-4.860
100405.000			-29.160			-4.860
100504.000			-29.159			-4.860
100603.000			-29.159			-4.860
100705.000			-29.159			-4.860
100804.000			-29.158			-4.860
100904.000			-29.157			-4.860
101005.000			-29.156			-4.859
101104.000			-29.156			-4.859
101204.000			-29.156			-4.859
101304.000			-29.155			-4.859
101404.000			-29.154			-4.859
101504.000			-29.155			-4.859
101605.000			-29.154			-4.859
101704.000			-29.153			-4.859
101804.000			-29.152			-4.859
101905.000			-29.152			-4.859
102003.000			-29.152			-4.859
102104.000			-29.151			-4.858
102205.000			-29.151			-4.858
102304.000			-29.150			-4.858
102404.000			-29.151			-4.858
102504.000			-29.148			-4.858
102604.000			-29.147			-4.858
102703.000			-29.149			-4.858
102804.000			-29.148			-4.858
102903.000			-29.148			-4.858
103005.000			-29.148			-4.858
103104.000			-29.147			-4.858
103204.000			-29.146			-4.858
103305.000			-29.144			-4.857
103404.000			-29.144			-4.857
103504.000			-29.145			-4.858
103604.000			-29.144			-4.857
103704.000			-29.143			-4.857
103804.000			-29.142			-4.857
103905.000			-29.143			-4.857
104004.000			-29.144			-4.857
104104.000			-29.143			-4.857
104205.000			-29.142			-4.857
104303.000			-29.141			-4.857
104404.000			-29.139			-4.857
104505.000			-29.139			-4.856
104604.000			-29.138			-4.856
104704.000			-29.138			-4.856
104805.000			-29.137			-4.856
104904.000			-29.137			-4.856
105003.000			-29.136			-4.856
105105.000			-29.136			-4.856
105204.000			-29.135			-4.856
105304.000			-29.135			-4.856
105405.000			-29.134			-4.856
105504.000			-29.134			-4.856
105604.000			-29.134			-4.856
105703.000			-29.133			-4.855
105804.000			-29.133			-4.855
105905.000			-29.133			-4.855
106004.000			-29.133			-4.855
106104.000			-29.132			-4.855
106205.000			-29.131			-4.855
106304.000			-29.131			-4.855
106403.000			-29.131			-4.855
106505.000			-29.131			-4.855
106604.000			-29.129			-4.855
106704.000			-29.129			-4.855
106805.000			-29.129			-4.855
106904.000			-29.128			-4.855
107004.000			-29.127			-4.855
107104.000			-29.127			-4.854
107204.000			-29.127			-4.854
107304.000			-29.126			-4.854
107405.000			-29.125			-4.854
107504.000			-29.125			-4.854
107604.000			-29.123			-4.854
107705.000			-29.123			-4.854
107804.000			-29.124			-4.854
107904.000			-29.123			-4.854
108004.000			-29.123			-4.854
108104.000			-29.123			-4.854
108204.000			-29.122			-4.854
108305.000			-29.120			-4.853
108404.000			-29.120			-4.853
108504.000			-29.120			-4.853
108605.000			-29.120			-4.853
108703.000			-29.118			-4.853
108804.000			-29.117			-4.853
108905.000			-29.118			-4.853
109004.000			-29.118			-4.853
109105.000			-29.117			-4.853
109204.000			-29.117			-4.853
109304.000			-29.116			-4.853
109404.000			-29.116			-4.853
109504.000			-29.115			-4.853
109604.000			-29.114			-4.852
109705.000			-29.114			-4.852
109804.000			-29.114			-4.852
109904.000			-29.113			-4.852
110005.000			-29.112			-4.852
110103.000			-29.112			-4.852
110204.000			-29.113			-4.852
110305.000			-29.112			-4.852
110404.000			-29.112			-4.852
110504.000			-29.112			-4.852
110605.000			-29.111			-4.852
110704.000			-29.110			-4.852
110803.000			-29.109			-4.852
110905.000			-29.109			-4.851
111004.000			-29.109			-4.851
111104.000			-29.108			-4.851
111205.000			-29.107			-4.851
111304.000			-29.107			-4.851
111404.000			-29.106			-4.851
111504.000			-29.105			-4.851
111604.000			-29.105			-4.851
111704.000			-29.105			-4.851
111805.000			-29.105			-4.851
111904.000			-29.103			-4.850
112004.000			-29.103			-4.850
112105.000			-29.103			-4.850
112203.000			-29.103			-4.850
112305.000			-29.103			-4.851
112404.000			-29.103			-4.850
112504.000			-29.102			-4.850
112605.000			-29.100			-4.850
112704.000			-29.100			-4.850
112804.000			-29.100			-4.850
112904.000			-29.100			-4.850
113004.000			-29.099			-4.850
113104.000			-29.098			-4.850
113205.000			-29.098			-4.850
113304.000			-29.099			-4.850
113404.000			-29.097			-4.849
113505.000			-29.096			-4.849
113603.000			-29.096			-4.849
113704.000			-29.096			-4.849
113805.000			-29.095			-4.849
113904.000			-29.094			-4.849
114004.000			-29.094			-4.849
114105.000			-29.094			-4.849
114204.000			-29.094			-4.849
114304.000			-29.094			-4.849
114405.000			-29.094			-4.849
114503.000			-29.093			-4.849
114604.000			-29.092			-4.849
114705.000			-29.091			-4.848
114804.000			-29.091			-4.848
114904.000			-29.090			-4.848
115005.000			-29.089			-4.848
115104.000			-29.089			-4.848
115203.000			-29.088			-4.848
115305.000			-29.088			-4.848
115404.000			-29.088			-4.848
115505.000			-29.087			-4.848
115604.000			-29.086			-4.848
115704.000			-29.085			-4.848
115805.000			-29.085			-4.848
115904.000			-29.086			-4.848
116004.000			-29.086			-4.848
116104.000			-29.085			-4.848
116204.000			-29.085			-4.847
116304.000			-29.083			-4.847
116405.000			-29.084			-4.847
116504.000			-29.083			-4.847
116604.000			-29.082			-4.847
116705.000			-29.082			-4.847
116803.000			-29.083			-4.847
116904.000			-29.081			-4.847
117005.000			-29.080			-4.847
117104.000			-29.079			-4.847
117204.000			-29.079			-4.846
117305.000			-29.078			-4.846
117404.000			-29.078			-4.846
117503.000			-29.078			-4.846
117605.000			-29.078			-4.846
117704.000			-29.077			-4.846
117804.000			-29.076			-4.846
117905.000			-29.076			-4.846
118004.000			-29.076			-4.846
118104.000			-29.075			-4.846
118204.000			-29.075			-4.846
118304.000			-29.075			-4.846
118403.000			-29.075			-4.846
118505.000			-29.075			-4.846
118604.000			-29.074			-4.846
118705.000			-29.073			-4.846
118804.000			-29.073			-4.846
118904.000			-29.073			-4.845
119005.000			-29.073			-4.845
119103.000			-29.072			-4.845
119204.000			-29.072			-4.845
119305.000			-29.071			-4.845
119404.000			-29.069			-4.845
119504.000			-29.069			-4.845
119605.000			-29.070			-4.845
119704.000			-29.069			-4.845
119804.000			-29.068			-4.845
119905.000			-29.066			-4.844
120003.000			-29.067			-4.845
120104.000			-29.067			-4.845
120205.000			-29.066			-4.844
120304.000			-29.066			-4.844
120404.000			-29.065			-4.844
120505.000			-29.065			-4.844
120604.000			-29.064			-4.844
120703.000			-29.066			-4.844
120805.000			-29.065			-4.844
120904.000			-29.064			-4.844
121004.000			-29.063			-4.844
121105.000			-29.063			-4.844
121204.000			-29.062			-4.844
121304.000			-29.061			-4.844
121404.000			-29.061			-4.844
121504.000			-29.060			-4.843
121604.000			-29.060			-4.843
121704.000			-29.059			-4.843
121804.000			-29.059			-4.843
121905.000			-29.059			-4.843
122004.000			-29.059			-4.843
122103.000			-29.056			-4.843
122205.000			-29.056			-4.843
122304.000			-29.056			-4.843
122404.000			-29.056			-4.843
122505.000			-29.056			-4.843
122604.000			-29.055			-4.843
122704.000			-29.055			-4.843
122804.000			-29.054			-4.842
122904.000			-29.054			-4.842
123003.000			-29.053			-4.842
123105.000			-29.053			-4.842
123204.000			-29.053			-4.842
123304.000			-29.052			-4.842
123405.000			-29.051			-4.842
123504.000			-29.052			-4.842
123604.000			-29.050			-4.842
123704.000			-29.051			-4.842
123804.000			-29.051			-4.842
123904.000			-29.050			-4.842
124005.000			-29.049			-4.841
124104.000			-29.048			-4.841
124204.000			-29.049			-4.841
124305.000			-29.048			-4.841
124403.000			-29.048			-4.841
124504.000			-29.047			-4.841
124605.000			-29.048			-4.841
124704.000			-29.048			-4.841
124804.000			-29.048			-4.841
124904.000			-29.048			-4.841
125004.000			-29.046			-4.841
125103.000			-29.046			-4.841
125204.000			-29.046			-4.841
125304.000			-29.045			-4.841
125405.000			-29.044			-4.841
125504.000			-29.045			-4.841
125604.000			-29.046			-4.841
125705.000			-29.044			-4.841
125804.000			-29.042			-4.840
125904.000			-29.043			-4.840
126004.000			-29.042			-4.840
126104.000			-29.042			-4.840
126204.000			-29.041			-4.840
126305.000			-29.042			-4.840
126404.000			-29.043			-4.840
126504.000			-29.040			-4.840
126605.000			-29.040			-4.840
126703.000			-29.041			-4.840
126804.000			-29.040			-4.840
126905.000			-29.039			-4.840
127004.000			-29.038			-4.840
127104.000			-29.038			-4.840
127205.000			-29.039			-4.840
127304.000			-29.038			-4.840
127403.000			-29.037			-4.839
127505.000			-29.035			-4.839
127604.000			-29.035			-4.839
127704.000			-29.035			-4.839
127805.000			-29.035			-4.839
127904.000			-29.034			-4.839
128004.000			-29.034			-4.839
128103.000			-29.034			-4.839
128204.000			-29.033			-4.839
128305.000			-29.032			-4.839
128404.000			-29.032			-4.839
128504.000			-29.031			-4.839
128605.000			-29.029			-4.838
128704.000			-29.029			-4.838
128803.000			-29.030			-4.838
128905.000			-29.030			-4.838
129003.000			-29.029			-4.838
129104.000			-29.029			-4.838
129205.000			-29.029			-4.838
129304.000			-29.029			-4.838
129404.000			-29.028			-4.838
129505.000			-29.027			-4.838
129604.000			-29.026			-4.838
129703.000			-29.026			-4.838
129805.000			-29.025			-4.838
129904.000			-29.025			-4.837
130004.000			-29.025			-4.838
130105.000			-29.024			-4.837
130204.000			-29.024			-4.837
130304.000			-29.025			-4.837
130404.000			-29.025			-4.837
130504.000			-29.024			-4.837
130604.000			-29.023			-4.837
130705.000			-29.023			-4.837
130804.000			-29.023			-4.837
130904.000			-29.022			-4.837
131005.000			-29.021			-4.837
131103.000			-29.021			-4.837
131204.000			-29.022			-4.837
131305.000			-29.021			-4.837
131404.000			-29.021			-4.837
131505.000			-29.020			-4.837
131604.000			-29.020			-4.837
131704.000			-29.020			-4.837
131805.000			-29.020			-4.837
131904.000			-29.019			-4.836
132003.000			-29.019			-4.837
132105.000			-29.018			-4.836
132204.000			-29.017			-4.836
132304.000			-29.018			-4.836
132405.000			-29.017			-4.836
132504.000			-29.018			-4.836
132604.000			-29.017			-4.836
132704.000			-29.016			-4.836
132804.000			-29.016			-4.836
132903.000			-29.017			-4.836
133005.000			-29.016			-4.836
133104.000			-29.016			-4.836
133204.000			-29.014			-4.836
133305.000			-29.014			-4.836
133404.000			-29.015			-4.836
133504.000			-29.014			-4.836
133604.000			-29.013			-4.835
133704.000			-29.013			-4.835
133804.000			-29.013			-4.835
133905.000			-29.012			-4.835
134004.000			-29.012			-4.835
134104.000			-29.012			-4.835
134205.000			-29.012			-4.835
134304.000			-29.011			-4.835
134404.000			-29.011			-4.835
134503.000			-29.010			-4.835
134604.000			-29.010			-4.835
134705.000			-29.009			-4.835
134804.000			-29.008			-4.835
134904.000			-29.008			-4.835
135005.000			-29.007			-4.834
135104.000			-29.007			-4.834
135204.000			-29.006			-4.834
135305.000			-29.006			-4.834
135403.000			-29.007			-4.834
135504.000			-29.007			-4.835
135605.000			-29.006			-4.834
135704.000			-29.004			-4.834
135804.000			-29.004			-4.834
135905.000			-29.003			-4.834
136004.000			-29.003			-4.834
136103.000			-29.003			-4.834
136205.000			-29.001			-4.834
136303.000			-29.002			-4.834
136404.000			-29.002			-4.834
136505.000			-29.002			-4.834
136604.000			-29.001			-4.834
136704.000			-29.000			-4.833
136805.000			-29.000			-4.833
136904.000			-29.000			-4.833
137003.000			-29.000			-4.833
137105.000			-29.000			-4.833
137204.000			-28.999			-4.833
137304.000			-28.999			-4.833
137405.000			-28.999			-4.833
137504.000			-28.998			-4.833
137604.000			-28.997			-4.833
137704.000			-28.997			-4.833
137804.000			-28.998			-4.833
137903.000			-28.997			-4.833
138004.000			-28.996			-4.833
138103.000			-28.996			-4.833
138205.000			-28.995			-4.833
138304.000			-28.995			-4.832
138404.000			-28.994			-4.832
138505.000			-28.994			-4.832
138604.000			-28.994			-4.832
138704.000			-28.993			-4.832
138805.000			-28.993			-4.832
138904.000			-28.993			-4.832
139003.000			-28.992			-4.832
139105.000			-28.992			-4.832
139203.000			-28.991			-4.832
139304.000			-28.991			-4.832
139405.000			-28.991			-4.832
139504.000			-28.990			-4.832
139604.000			-28.989			-4.832
139705.000			-28.989			-4.832
139804.000			-28.989			-4.832
139904.000			-28.988			-4.831
140005.000			-28.987			-4.831
140103.000			-28.988			-4.831
140204.000			-28.988			-4.831
140304.000			-28.988			-4.831
140404.000			-28.987			-4.831
140504.000			-28.987			-4.831
140605.000			-28.986			-4.831
140704.000			-28.985			-4.831
140804.000			-28.986			-4.831
140905.000			-28.986			-4.831
141004.000			-28.985			-4.831
141105.000			-28.984			-4.831
141203.000			-28.984			-4.831
141304.000			-28.985			-4.831
141405.000			-28.983			-4.830
141504.000			-28.982			-4.830
141604.000			-28.984			-4.831
141705.000			-28.983			-4.831
141804.000			-28.982			-4.830
141904.000			-28.982			-4.830
142005.000			-28.981			-4.830
142103.000			-28.982			-4.830
142204.000			-28.982			-4.830
142305.000			-28.981			-4.830
142404.000			-28.981			-4.830
142504.000			-28.979			-4.830
142605.000			-28.979			-4.830
142704.000			-28.979			-4.830
142804.000			-28.979			-4.830
142905.000			-28.978			-4.830
143003.000			-28.978			-4.830
143104.000			-28.979			-4.830
143204.000			-28.977			-4.830
143304.000			-28.977			-4.829
143404.000			-28.976			-4.829
143505.000			-28.975			-4.829
143604.000			-28.975			-4.829
143704.000			-28.974			-4.829
143805.000			-28.974			-4.829
143904.000			-28.974			-4.829
144004.000			-28.973			-4.829
144103.000			-28.973			-4.829
144204.000			-28.973			-4.829
144305.000			-28.973			-4.829
144404.000			-28.973			-4.829
144504.000			-28.972			-4.829
144605.000			-28.972			-4.829
144704.000			-28.971			-4.829
144804.000			-28.971			-4.828
144905.000			-28.971			-4.828
145003.000			-28.971			-4.828
145104.000			-28.970			-4.828
145205.000			-28.969			-4.828
145304.000			-28.968			-4.828
145404.000			-28.968			-4.828
145505.000			-28.968			-4.828
145604.000			-28.968			-4.828
145704.000			-28.967			-4.828
145805.000			-28.967			-4.828
145903.000			-28.966			-4.828
146004.000			-28.966			-4.828
146104.000			-28.966			-4.828
146204.000			-28.965			-4.827
146304.000			-28.965			-4.828
146405.000			-28.966			-4.828
146504.000			-28.963			-4.827
146604.000			-28.962			-4.827
146705.000			-28.962			-4.827
146804.000			-28.961			-4.827
146904.000			-28.962			-4.827
147004.000			-28.962			-4.827
147104.000			-28.960			-4.827
147204.000			-28.960			-4.827
147304.000			-28.960			-4.827
147404.000			-28.959			-4.826
147505.000			-28.958			-4.826
147604.000			-28.958			-4.826
147704.000			-28.958			-4.826
147805.000			-28.958			-4.826
147904.000			-28.958			-4.826
148004.000			-28.957			-4.826
148104.000			-28.956			-4.826
148204.000			-28.954			-4.826
148304.000			-28.954			-4.826
148405.000			-28.953			-4.826
148504.000			-28.952			-4.825
148604.000			-28.952			-4.825
148705.000			-28.952			-4.825
148804.000			-28.952			-4.825
148904.000			-28.952			-4.825
149004.000			-28.949			-4.825
149104.000			-28.950			-4.825
149203.000			-28.949			-4.825
149305.000			-28.950			-4.825
149404.000			-28.950			-4.825
149504.000			-28.950			-4.825
149605.000			-28.949			-4.825
149704.000			-28.949			-4.825
149804.000			-28.948			-4.825
149905.000			-28.947			-4.825
150004.000			-28.947			-4.825
150103.000			-28.947			-4.824
150205.000			-28.947			-4.824
150304.000			-28.946			-4.824
150404.000			-28.945			-4.824
150505.000			-28.945			-4.824
150604.000			-28.944			-4.824
150705.000			-28.946			-4.824
150804.000			-28.946			-4.824
150904.000			-28.945			-4.824
151004.000			-28.944			-4.824
151104.000			-28.945			-4.824
151203.000			-28.945			-4.824
151305.000			-28.944			-4.824
151404.000			-28.944			-4.824
151504.000			-28.944			-4.824
151605.000			-28.943			-4.824
151704.000			-28.943			-4.824
151804.000			-28.943			-4.824
151904.000			-28.942			-4.824
152004.000			-28.942			-4.824
152103.000			-28.942			-4.824
152205.000			-28.942			-4.824
152304.000			-28.942			-4.824
152404.000			-28.940			-4.823
152505.000			-28.941			-4.823
152604.000			-28.941			-4.823
152704.000			-28.939			-4.823
152804.000			-28.939			-4.823
152904.000			-28.939			-4.823
153003.000			-28.939			-4.823
153105.000			-28.940			-4.823
153204.000			-28.938			-4.823
153304.000			-28.938			-4.823
153405.000			-28.937			-4.823
153504.000			-28.937			-4.823
153604.000			-28.937			-4.823
153704.000			-28.936			-4.823
153804.000			-28.936			-4.823
153903.000			-28.936			-4.823
154004.000			-28.934			-4.822
154104.000			-28.936			-4.823
154205.000			-28.934			-4.822
154304.000			-28.934			-4.822
154404.000			-28.935			-4.823
154505.000			-28.936			-4.823
154604.000			-28.935			-4.822
154704.000			-28.933			-4.822
154804.000			-28.933			-4.822
154904.000			-28.934			-4.822
155003.000			-28.934			-4.822
155105.000			-28.933			-4.822
155204.000			-28.933			-4.822
155304.000			-28.932			-4.822
155405.000			-28.932			-4.822
155504.000			-28.932			-4.822
155604.000			-28.932			-4.822
155704.000			-28.932			-4.822
155804.000			-28.932			-4.822
155903.000			-28.931			-4.822
156005.000			-28.931			-4.822
156104.000			-28.931			-4.822
156204.000			-28.929			-4.822
156305.000			-28.929			-4.822
156404.000			-28.929			-4.822
156504.000			-28.929			-4.822
156605.000			-28.929			-4.822
156704.000			-28.929			-4.821
156803.000			-28.928			-4.821
156905.000			-28.928			-4.821
157004.000			-28.927			-4.821
157105.000			-28.927			-4.821
157204.000			-28.927			-4.821
157304.000			-28.927			-4.821
157405.000			-28.927			-4.821
157504.000			-28.926			-4.821
157604.000			-28.926			-4.821
157704.000			-28.926			-4.821
157804.000			-28.925			-4.821
157903.000			-28.924			-4.821
158005.000			-28.925			-4.821
158104.000			-28.924			-4.821
158204.000			-28.924			-4.821
158305.000			-28.924			-4.821
158404.000			-28.924			-4.821
158504.000			-28.924			-4.821
158604.000			-28.922			-4.820
158704.000			-28.922			-4.820
158803.000			-28.924			-4.821
158905.000			-28.922			-4.820
159004.000			-28.922			-4.820
159104.000			-28.921			-4.820
159205.000			-28.922			-4.820
159304.000			-28.920			-4.820
159404.000			-28.920			-4.820
159505.000			-28.920			-4.820
159604.000			-28.920			-4.820
159703.000			-28.920			-4.820
159805.000			-28.919			-4.820
159904.000			-28.919			-4.820
160004.000			-28.918			-4.820
160105.000			-28.918			-4.820
160204.000			-28.917			-4.819
160305.000			-28.917			-4.819
160404.000			-28.917			-4.819
160504.000			-28.916			-4.819
160604.000			-28.917			-4.819
160704.000			-28.916			-4.819
160803.000			-28.915			-4.819
160905.000			-28.915			-4.819
161004.000			-28.914			-4.819
161104.000			-28.914			-4.819
161205.000			-28.915			-4.819
161304.000			-28.913			-4.819
161404.000			-28.914			-4.819
161504.000			-28.914			-4.819
161604.000			-28.913			-4.819
161703.000			-28.914			-4.819
161805.000			-28.913			-4.819
161904.000			-28.913			-4.819
162004.000			-28.912			-4.819
162105.000			-28.911			-4.818
162204.000			-28.910			-4.818
162304.000			-28.911			-4.818
162404.000			-28.910			-4.818
162504.000			-28.910			-4.818
162603.000			-28.911			-4.818
162705.000			-28.909			-4.818
162804.000			-28.909			-4.818
162904.000			-28.909			-4.818
163005.000			-28.909			-4.818
163104.000			-28.907			-4.818
163204.000			-28.907			-4.818
163304.000			-28.907			-4.818
163404.000			-28.906			-4.818
163503.000			-28.906			-4.818
163604.000			-28.906			-4.818
163704.000			-28.907			-4.818
163805.000			-28.907			-4.818
163904.000			-28.906			-4.818
164004.000			-28.905			-4.818
164105.000			-28.905			-4.818
164204.000			-28.904			-4.817
164304.000			-28.905			-4.817
164404.000			-28.904			-4.817
164504.000			-28.903			-4.817
164604.000			-28.903			-4.817
164705.000			-28.902			-4.817
164804.000			-28.902			-4.817
164904.000			-28.901			-4.817
165005.000			-28.902			-4.817
165104.000			-28.902			-4.817
165204.000			-28.901			-4.817
165304.000			-28.902			-4.817
165404.000			-28.902			-4.817
165504.000			-28.901			-4.817
165605.000			-28.900			-4.817
165704.000			-28.900			-4.817
165804.000			-28.901			-4.817
165905.000			-28.900			-4.817
166004.000			-28.899			-4.817
166104.000			-28.899			-4.816
166205.000			-28.899			-4.816
166304.000			-28.898			-4.816
166403.000			-28.897			-4.816
166505.000			-28.897			-4.816
166603.000			-28.897			-4.816
166705.000			-28.896			-4.816
166804.000			-28.897			-4.816
166904.000			-28.896			-4.816
167005.000			-28.895			-4.816
167104.000			-28.896			-4.816
167204.000			-28.896			-4.816
167305.000			-28.895			-4.816
167404.000			-28.896			-4.816
167503.000			-28.895			-4.816
167605.000			-28.894			-4.816
167703.000			-28.894			-4.816
167804.000			-28.893			-4.816
167905.000			-28.893			-4.816
168004.000			-28.893			-4.815
168104.000			-28.893			-4.815
168205.000			-28.892			-4.815
168304.000			-28.892			-4.815
168404.000			-28.892			-4.815
168505.000			-28.891			-4.815
168603.000			-28.891			-4.815
168704.000			-28.890			-4.815
168804.000			-28.889			-4.815
168904.000			-28.890			-4.815
169004.000			-28.889			-4.815
169105.000			-28.888			-4.815
169204.000			-28.887			-4.815
169304.000			-28.887			-4.815
169405.000			-28.888			-4.815
169504.000			-28.888			-4.815
169604.000			-28.886			-4.814
169703.000			-28.885			-4.814
169804.000			-28.886			-4.814
169903.000			-28.885			-4.814
170004.000			-28.885			-4.814
170104.000			-28.885			-4.814
170205.000			-28.885			-4.814
170304.000			-28.884			-4.814
170404.000			-28.884			-4.814
170505.000			-28.883			-4.814
170604.000			-28.882			-4.814
170704.000			-28.882			-4.814
170804.000			-28.882			-4.814
170904.000			-28.881			-4.814
171004.000			-28.881			-4.814
171105.000			-28.881			-4.813
171204.000			-28.882			-4.814
171304.000			-28.882			-4.814
171405.000			-28.881			-4.814
171504.000			-28.880			-4.813
171604.000			-28.880			-4.813
171704.000			-28.880			-4.813
171804.000			-28.879			-4.813
171903.000			-28.879			-4.813
172005.000			-28.879			-4.813
172104.000			-28.878			-4.813
172204.000			-28.879			-4.813
172305.000			-28.878			-4.813
172404.000			-28.878			-4.813
172504.000			-28.878			-4.813
172605.000			-28.877			-4.813
172704.000			-28.877			-4.813
172803.000			-28.877			-4.813
172905.000			-28.876			-4.813
173004.000			-28.876			-4.813
173105.000			-28.876			-4.813
173204.000			-28.876			-4.813
173304.000			-28.875			-4.813
173405.000			-28.874			-4.812
173504.000			-28.874			-4.812
173604.000			-28.875			-4.812
173704.000			-28.874			-4.812
173804.000			-28.872			-4.812
173903.000			-28.871			-4.812
174005.000			-28.872			-4.812
174104.000			-28.872			-4.812
174204.000			-28.873			-4.812
174305.000			-28.873			-4.812
174404.000			-28.871			-4.812
174504.000			-28.871			-4.812
174605.000			-28.870			-4.812
174704.000			-28.869			-4.811
174803.000			-28.869			-4.812
174905.000			-28.869			-4.812
175004.000			-28.870			-4.812
175104.000			-28.869			-4.811
175205.000			-28.868			-4.811
175304.000			-28.869			-4.811
175404.000			-28.868			-4.811
175505.000			-28.868			-4.811
175604.000			-28.868			-4.811
175703.000			-28.868			-4.811
175805.000			-28.867			-4.811
175903.000			-28.867			-4.811
176004.000			-28.868			-4.811
176105.000			-28.867			-4.811
176204.000			-28.866			-4.811
176305.000			-28.865			-4.811
176404.000			-28.866			-4.811
176504.000			-28.865			-4.811
176605.000			-28.865			-4.811
176704.000			-28.864			-4.811
176803.000			-28.864			-4.811
176905.000			-28.864			-4.811
177003.000			-28.863			-4.811
177104.000			-28.863			-4.810
177205.000			-28.863			-4.810
177304.000			-28.863			-4.810
177404.000			-28.863			-4.811
177505.000			-28.863			-4.810
177604.000			-28.862			-4.810
177704.000			-28.861			-4.810
177805.000			-28.860			-4.810
177903.000			-28.861			-4.810
178004.000			-28.861			-4.810
178104.000			-28.860			-4.810
178204.000			-28.859			-4.810
178304.000			-28.860			-4.810
178405.000			-28.860			-4.810
178504.000			-28.858			-4.810
178604.000			-28.857			-4.809
178705.000			-28.859			-4.810
178804.000			-28.859			-4.810
178904.000			-28.858			-4.810
179004.000			-28.857			-4.809
179104.000			-28.857			-4.810
179203.000			-28.857			-4.810
179305.000			-28.856			-4.809
179404.000			-28.856			-4.809
179505.000			-28.856			-4.809
179604.000			-28.855			-4.809
179704.000			-28.854			-4.809
179805.000			-28.854			-4.809
179904.000			-28.854			-4.809
180004.000			-28.855			-4.809
180104.000			-28.854			-4.809
180204.000			-28.853			-4.809
180304.000			-28.854			-4.809
180405.000			-28.853			-4.809
180504.000			-28.853			-4.809
180604.000			-28.853			-4.809
180705.000			-28.852			-4.809
180804.000			-28.853			-4.809
180904.000			-28.852			-4.809
181004.000			-28.853			-4.809
181104.000			-28.852			-4.809
181204.000			-28.851			-4.809
181305.000			-28.852			-4.809
181404.000			-28.851			-4.809
181504.000			-28.851			-4.809
181605.000			-28.851			-4.809
181704.000			-28.851			-4.809
181804.000			-28.850			-4.808
181904.000			-28.849			-4.808
182004.000			-28.850			-4.808
182103.000			-28.850			-4.808
182205.000			-28.849			-4.808
182304.000			-28.848			-4.808
182404.000			-28.848			-4.808
182505.000			-28.848			-4.808
182604.000			-28.847			-4.808
182705.000			-28.847			-4.808
182804.000			-28.848			-4.808
182904.000			-28.848			-4.808
183004.000			-28.848			-4.808
183104.000			-28.847			-4.808
183204.000			-28.847			-4.808
183305.000			-28.846			-4.808
183404.000			-28.846			-4.808
183504.000			-28.845			-4.808
183605.000			-28.846			-4.808
183704.000			-28.845			-4.808
183804.000			-28.844			-4.807
183904.000			-28.844			-4.807
184004.000			-28.844			-4.807
184103.000			-28.843			-4.807
184205.000			-28.842			-4.807
184304.000			-28.842			-4.807
184404.000			-28.844			-4.807
184505.000			-28.842			-4.807
184604.000			-28.841			-4.807
184704.000			-28.841			-4.807
184804.000			-28.841			-4.807
184904.000			-28.842			-4.807
185003.000			-28.841			-4.807
185105.000			-28.841			-4.807
185204.000			-28.840			-4.807
185304.000			-28.840			-4.807
185405.000			-28.840			-4.807
185504.000			-28.839			-4.807
185604.000			-28.840			-4.807
185704.000			-28.839			-4.807
185804.000			-28.839			-4.806
185903.000			-28.838			-4.806
186004.000			-28.839			-4.806
186104.000			-28.839			-4.807
186205.000			-28.838			-4.806
186304.000			-28.839			-4.806
186404.000			-28.839			-4.806
186505.000			-28.838			-4.806
186604.000			-28.836			-4.806
186704.000			-28.837			-4.806
186804.000			-28.836			-4.806
186904.000			-28.836			-4.806
187003.000			-28.836			-4.806
187105.000			-28.834			-4.806
187204.000			-28.835			-4.806
187304.000			-28.835			-4.806
187405.000			-28.834			-4.806
187504.000			-28.834			-4.806
187604.000			-28.834			-4.806
187704.000			-28.835			-4.806
187804.000			-28.835			-4.806
187903.000			-28.834			-4.806
188005.000			-28.832			-4.805
188104.000			-28.832			-4.805
188204.000			-28.832			-4.805
188305.000			-28.832			-4.805
188404.000			-28.832			-4.805
188504.000			-28.831			-4.805
188605.000			-28.830			-4.805
188704.000			-28.831			-4.805
188803.000			-28.831			-4.805
188905.000			-28.830			-4.805
189003.000			-28.829			-4.805
189105.000			-28.829			-4.805
189204.000			-28.829			-4.805
189304.000			-28.828			-4.805
189405.000			-28.828			-4.805
189504.000			-28.828			-4.805
189604.000			-28.828			-4.805
189705.000			-28.828			-4.805
189804.000			-28.827			-4.805
189903.000			-28.828			-4.805
190005.000			-28.827			-4.804
190104.000			-28.825			-4.804
190204.000			-28.825			-4.804
190305.000			-28.826			-4.804
190404.000			-28.825			-4.804
190504.000			-28.825			-4.804
190605.000			-28.825			-4.804
190704.000			-28.825			-4.804
190803.000			-28.825			-4.804
190905.000			-28.824			-4.804
191003.000			-28.824			-4.804
191104.000			-28.824			-4.804
191205.000			-28.824			-4.804
191304.000			-28.824			-4.804
191404.000			-28.823			-4.804
191505.000			-28.823			-4.804
191604.000			-28.822			-4.804
191703.000			-28.822			-4.804
191805.000			-28.822			-4.804
191903.000			-28.821			-4.804
192004.000			-28.821			-4.804
192105.000			-28.821			-4.804
192204.000			-28.820			-4.803
192305.000			-28.820			-4.803
192404.000			-28.819			-4.803
192504.000			-28.821			-4.803
192605.000			-28.820			-4.803
192704.000			-28.819			-4.803
192803.000			-28.819			-4.803
192905.000			-28.817			-4.803
193004.000			-28.818			-4.803
193104.000			-28.818			-4.803
193205.000			-28.818			-4.803
193304.000			-28.818			-4.803
193404.000			-28.817			-4.803
193505.000			-28.817			-4.803
193604.000			-28.817			-4.803
193703.000			-28.817			-4.803
193805.000			-28.816			-4.803
193904.000			-28.815			-4.803
194004.000			-28.813			-4.802
194105.000			-28.814			-4.802
194204.000			-28.815			-4.803
194304.000			-28.814			-4.802
194405.000			-28.814			-4.802
194504.000			-28.814			-4.802
194603.000			-28.813			-4.802
194705.000			-28.814			-4.802
194803.000			-28.813			-4.802
194904.000			-28.814			-4.802
195005.000			-28.814			-4.802
195104.000			-28.813			-4.802
195204.000			-28.812			-4.802
195304.000			-28.812			-4.802
195404.000			-28.812			-4.802
195505.000			-28.810			-4.802
195604.000			-28.811			-4.802
195703.000			-28.811			-4.802
195805.000			-28.810			-4.802
195904.000			-28.810			-4.802
196004.000			-28.810			-4.802
196105.000			-28.810			-4.802
196204.000			-28.810			-4.802
196304.000			-28.810			-4.802
196405.000			-28.809			-4.801
196504.000			-28.809			-4.802
196604.000			-28.809			-4.801
196705.000			-28.808			-4.801
196803.000			-28.809			-4.801
196904.000			-28.808			-4.801
197005.000			-28.808			-4.801
197104.000			-28.808			-4.801
197204.000			-28.807			-4.801
197305.000			-28.807			-4.801
197404.000			-28.807			-4.801
197504.000			-28.806			-4.801
197605.000			-28.806			-4.801
197703.000			-28.806			-4.801
197804.000			-28.806			-4.801
197904.000			-28.805			-4.801
198004.000			-28.804			-4.801
198104.000			-28.804			-4.801
198205.000			-28.804			-4.801
198304.000			-28.803			-4.800
198404.000			-28.803			-4.800
198505.000			-28.803			-4.801
198604.000			-28.803			-4.801
198705.000			-28.803			-4.800
198803.000			-28.803			-4.801
198904.000			-28.803			-4.800
199005.000			-28.803			-4.800
199104.000			-28.802			-4.800
199204.000			-28.803			-4.800
199305.000			-28.803			-4.801
199404.000			-28.802			-4.800
199504.000			-28.801			-4.800
199605.000			-28.801			-4.800
199703.000			-28.801			-4.800
199804.000			-28.801			-4.800
199904.000			-28.800			-4.800
200004.000			-28.799			-4.800
200104.000			-28.799			-4.800
200205.000			-28.800			-4.800
200304.000			-28.800			-4.800
200404.000			-28.799			-4.800
200505.000			-28.799			-4.800
200604.000			-28.799			-4.800
200704.000			-28.799			-4.800
200804.000			-28.797			-4.800
200904.000			-28.797			-4.800
201004.000			-28.797			-4.799
201105.000			-28.797			-4.800
201204.000			-28.797			-4.799
201304.000			-28.796			-4.799
201405.000			-28.796			-4.799
201504.000			-28.797			-4.799
201604.000			-28.796			-4.799
201703.000			-28.795			-4.799
201804.000			-28.795			-4.799
201903.000			-28.794			-4.799
202004.000			-28.795			-4.799
202104.000			-28.794			-4.799
202205.000			-28.794			-4.799
202304.000			-28.794			-4.799
202404.000			-28.794			-4.799
202505.000			-28.794			-4.799
202603.000			-28.792			-4.799
202704.000			-28.793			-4.799
202804.000			-28.792			-4.799
202904.000			-28.792			-4.799
203004.000			-28.792			-4.799
203105.000			-28.792			-4.799
203204.000			-28.791			-4.799
203304.000			-28.791			-4.799
203405.000			-28.791			-4.799
203503.000			-28.791			-4.798
203604.000			-28.790			-4.798
203704.000			-28.790			-4.798
203804.000			-28.790			-4.798
203904.000			-28.789			-4.798
204005.000			-28.789			-4.798
204104.000			-28.789			-4.798
204204.000			-28.789			-4.798
204305.000			-28.789			-4.798
204403.000			-28.788			-4.798
204504.000			-28.787			-4.798
204604.000			-28.786			-4.798
204704.000			-28.787			-4.798
204804.000			-28.788			-4.798
204904.000			-28.787			-4.798
205004.000			-28.788			-4.798
205105.000			-28.786			-4.798
205204.000			-28.786			-4.798
205304.000			-28.786			-4.798
205405.000			-28.786			-4.798
205503.000			-28.785			-4.798
205604.000			-28.785			-4.798
205704.000			-28.784			-4.797
205804.000			-28.785			-4.798
205904.000			-28.785			-4.798
206005.000			-28.784			-4.797
206104.000			-28.783			-4.797
206204.000			-28.783			-4.797
206305.000			-28.783			-4.797
206403.000			-28.782			-4.797
206504.000			-28.782			-4.797
206604.000			-28.782			-4.797
206704.000			-28.782			-4.797
206804.000			-28.782			-4.797
206905.000			-28.783			-4.797
207004.000			-28.781			-4.797
207104.000			-28.781			-4.797
207205.000			-28.780			-4.797
207303.000			-28.780			-4.797
207404.000			-28.780			-4.797
207504.000			-28.779			-4.797
207604.000			-28.779			-4.796
207704.000			-28.780			-4.797
207805.000			-28.779			-4.796
207904.000			-28.779			-4.796
208004.000			-28.778			-4.796
208105.000			-28.778			-4.796
208204.000			-28.779			-4.797
208305.000			-28.778			-4.796
208403.000			-28.777			-4.796
208504.000			-28.777			-4.796
208604.000			-28.777			-4.796
208704.000			-28.777			-4.796
208804.000			-28.777			-4.796
208905.000			-28.777			-4.796
209004.000			-28.777			-4.796
209104.000			-28.777			-4.796
209205.000			-28.776			-4.796
209303.000			-28.776			-4.796
209404.000			-28.775			-4.796
209504.000			-28.775			-4.796
209604.000			-28.775			-4.796
209704.000			-28.775			-4.796
209805.000			-28.774			-4.796
209904.000			-28.773			-4.796
210004.000			-28.773			-4.796
210105.000			-28.773			-4.796
210204.000			-28.773			-4.796
210304.000			-28.773			-4.795
210404.000			-28.774			-4.796
210504.000			-28.774			-4.796
210604.000			-28.772			-4.795
210705.000			-28.771			-4.795
210804.000			-28.771			-4.795
210904.000			-28.771			-4.795
211005.000			-28.772			-4.795
211104.000			-28.772			-4.795
211204.000			-28.771			-4.795
211303.000			-28.771			-4.795
211404.000			-28.771			-4.795
211505.000			-28.771			-4.795
211604.000			-28.769			-4.795
211704.000			-28.769			-4.795
211805.000			-28.770			-4.795
211904.000			-28.770			-4.795
212004.000			-28.770			-4.795
212105.000			-28.768			-4.795
212203.000			-28.767			-4.795
212304.000			-28.768			-4.795
212405.000			-28.768			-4.795
212504.000			-28.768			-4.795
212604.000			-28.768			-4.795
212705.000			-28.767			-4.795
212804.000			-28.766			-4.794
212904.000			-28.766			-4.794
213005.000			-28.766			-4.794
213103.000			-28.766			-4.794
213204.000			-28.766			-4.794
213305.000			-28.766			-4.794
213404.000			-28.765			-4.794
213504.000			-28.765			-4.794
213605.000			-28.765			-4.794
213704.000			-28.764			-4.794
213804.000			-28.765			-4.794
213905.000			-28.763			-4.794
214003.000			-28.764			-4.794
214104.000			-28.763			-4.794
214205.000			-28.764			-4.794
214304.000			-28.763			-4.794
214404.000			-28.763			-4.794
214504.000			-28.761			-4.793
214604.000			-28.760			-4.793
214705.000			-28.762			-4.794
214804.000			-28.763			-4.794
214903.000			-28.762			-4.794
215005.000			-28.762			-4.794
215104.000			-28.763			-4.794
215204.000			-28.762			-4.794
215305.000			-28.762			-4.794
215404.000			-28.761			-4.794
215504.000			-28.760			-4.793
215605.000			-28.760			-4.793
215704.000			-28.759			-4.793
215803.000			-28.760			-4.793
215905.000			-28.760			-4.793
216004.000			-28.759			-4.793
216104.000			-28.758			-4.793
216205.000			-28.759			-4.793
216304.000			-28.758			-4.793
216404.000			-28.758			-4.793
216505.000			-28.758			-4.793
216604.000			-28.758			-4.793
216703.000			-28.757			-4.793
216805.000			-28.756			-4.793
216903.000			-28.757			-4.793
217004.000			-28.756			-4.793
217105.000			-28.756			-4.793
217204.000			-28.756			-4.793
217304.000			-28.756			-4.793
217405.000			-28.755			-4.793
217504.000			-28.755			-4.793
217604.000			-28.755			-4.793
217705.000			-28.755			-4.793
217803.000			-28.755			-4.793
217905.000			-28.753			-4.792
218004.000			-28.753			-4.792
218104.000			-28.753			-4.792
218205.000			-28.753			-4.792
218304.000			-28.754			-4.792
218404.000			-28.753			-4.792
218505.000			-28.753			-4.792
218604.000			-28.752			-4.792
218703.000			-28.752			-4.792
218805.000			-28.752			-4.792
218904.000			-28.753			-4.792
219004.000			-28.752			-4.792
219105.000			-28.751			-4.792
219204.000			-28.751			-4.792
219304.000			-28.752			-4.792
219405.000			-28.750			-4.792
219504.000			-28.750			-4.792
219603.000			-28.749			-4.791
219705.000			-28.749			-4.791
219803.000			-28.749			-4.791
219904.000			-28.748			-4.791
220005.000			-28.748			-4.791
220104.000			-28.749			-4.791
220204.000			-28.749			-4.792
220305.000			-28.748			-4.791
220404.000			-28.747			-4.791
220503.000			-28.746			-4.791
220605.000			-28.747			-4.791
220703.000			-28.748			-4.791
220804.000			-28.747			-4.791
220905.000			-28.746			-4.791
221004.000			-28.747			-4.791
221105.000			-28.747			-4.791
221204.000			-28.746			-4.791
221304.000			-28.746			-4.791
221404.000			-28.746			-4.791
221504.000			-28.745			-4.791
221603.000			-28.745			-4.791
221705.000			-28.746			-4.791
221804.000			-28.745			-4.791
221904.000			-28.744			-4.791
222005.000			-28.743			-4.791
222104.000			-28.744			-4.791
222204.000			-28.744			-4.791
222304.000			-28.743			-4.790
222404.000			-28.742			-4.790
222503.000			-28.741			-4.790
222605.000			-28.741			-4.790
222704.000			-28.743			-4.790
222804.000			-28.743			-4.790
222905.000			-28.742			-4.790
223004.000			-28.741			-4.790
223104.000			-28.741			-4.790
223204.000			-28.742			-4.790
223304.000			-28.742			-4.790
223403.000			-28.741			-4.790
223505.000			-28.741			-4.790
223604.000			-28.741			-4.790
223704.000			-28.739			-4.790
223805.000			-28.740			-4.790
223904.000			-28.739			-4.790
224004.000			-28.739			-4.790
224104.000			-28.739			-4.790
224204.000			-28.739			-4.790
224303.000			-28.739			-4.790
224404.000			-28.740			-4.790
224504.000			-28.737			-4.789
224605.000			-28.738			-4.790
224704.000			-28.738			-4.790
224804.000			-28.738			-4.790
224905.000			-28.738			-4.790
225004.000			-28.738			-4.790
225104.000			-28.736			-4.789
225204.000			-28.736			-4.789
225304.000			-28.736			-4.789
225404.000			-28.736			-4.789
225505.000			-28.736			-4.789
225604.000			-28.736			-4.789
225704.000			-28.735			-4.789
225805.000			-28.735			-4.789
225904.000			-28.734			-4.789
226004.000			-28.733			-4.789
226104.000			-28.733			-4.789
226204.000			-28.734			-4.789
226304.000			-28.734			-4.789
226405.000			-28.735			-4.789
226504.000			-28.734			-4.789
226604.000			-28.734			-4.789
226705.000			-28.733			-4.789
226804.000			-28.732			-4.789
226904.000			-28.732			-4.789
227004.000			-28.731			-4.789
227104.000			-28.731			-4.788
227204.000			-28.731			-4.789
227304.000			-28.732			-4.789
227404.000			-28.731			-4.788
227505.000			-28.730			-4.788
227604.000			-28.731			-4.788
227704.000			-28.731			-4.789
227805.000			-28.730			-4.788
227903.000			-28.730			-4.788
228004.000			-28.729			-4.788
228105.000			-28.730			-4.788
228204.000			-28.729			-4.788
228304.000			-28.729			-4.788
228405.000			-28.729			-4.788
228504.000			-28.729			-4.788
228604.000			-28.729			-4.788
228705.000			-28.728			-4.788
228803.000			-28.728			-4.788
228904.000			-28.728			-4.788
229005.000			-28.728			-4.788
229104.000			-28.727			-4.788
229204.000			-28.727			-4.788
229305.000			-28.728			-4.788
229404.000			-28.727			-4.788
229504.000			-28.727			-4.788
229605.000			-28.726			-4.788
229704.000			-28.726			-4.788
229804.000			-28.725			-4.788
229904.000			-28.725			-4.788
230004.000			-28.725			-4.788
230104.000			-28.725			-4.788
230205.000			-28.724			-4.787
230304.000			-28.724			-4.787
230404.000			-28.725			-4.787
230505.000			-28.724			-4.787
230603.000			-28.724			-4.787
230705.000			-28.723			-4.787
230803.000			-28.724			-4.787
230904.000			-28.724			-4.787
231005.000			-28.723			-4.787
231104.000			-28.722			-4.787
231204.000			-28.722			-4.787
231305.000			-28.722			-4.787
231404.000			-28.722			-4.787
231503.000			-28.723			-4.787
231605.000			-28.722			-4.787
231704.000			-28.721			-4.787
231804.000			-28.721			-4.787
231905.000			-28.721			-4.787
232004.000			-28.720			-4.787
232104.000			-28.720			-4.787
232205.000			-28.720			-4.787
232304.000			-28.720			-4.787
232403.000			-28.719			-4.786
232505.000			-28.719			-4.787
232604.000			-28.719			-4.787
232704.000			-28.718			-4.786
232805.000			-28.719			-4.787
232904.000			-28.719			-4.787
233004.000			-28.718			-4.786
233105.000			-28.717			-4.786
233204.000			-28.716			-4.786
233303.000			-28.716			-4.786
233405.000			-28.717			-4.786
233504.000			-28.717			-4.786
233604.000			-28.717			-4.786
233705.000			-28.717			-4.786
233804.000			-28.716			-4.786
233905.000			-28.718			-4.786
234004.000			-28.716			-4.786
234104.000			-28.716			-4.786
234204.000			-28.717			-4.786
234304.000			-28.716			-4.786
234403.000			-28.715			-4.786
234505.000			-28.714			-4.786
234604.000			-28.715			-4.786
234704.000			-28.715			-4.786
234805.000			-28.715			-4.786
234904.000			-28.715			-4.786
235004.000			-28.713			-4.785
235104.000			-28.712			-4.785
235204.000			-28.712			-4.785
235303.000			-28.712			-4.785
235405.000			-28.713			-4.786
235504.000			-28.713			-4.785
235604.000			-28.713			-4.785
235705.000			-28.714			-4.786
235804.000			-28.713			-4.785
235904.000			-28.712			-4.785
236004.000			-28.711			-4.785
236104.000			-28.711			-4.785
236204.000			-28.711			-4.785
236305.000			-28.710			-4.785
236404.000			-28.711			-4.785
236504.000			-28.710			-4.785
236605.000			-28.710			-4.785
236704.000			-28.709			-4.785
236804.000			-28.709			-4.785
236903.000			-28.708			-4.785
237004.000			-28.708			-4.785
237105.000			-28.708			-4.785
237204.000			-28.708			-4.785
237304.000			-28.709			-4.785
237405.000			-28.709			-4.785
237504.000			-28.708			-4.785
237604.000			-28.707			-4.784
237705.000			-28.706			-4.784
237803.000			-28.706			-4.784
237904.000			-28.706			-4.784
238004.000			-28.707			-4.785
238104.000			-28.707			-4.785
238204.000			-28.706			-4.784
238305.000			-28.705			-4.784
238404.000			-28.705			-4.784
238504.000			-28.704			-4.784
238605.000			-28.704			-4.784
238703.000			-28.705			-4.784
238804.000			-28.705			-4.784
238904.000			-28.705			-4.784
239004.000			-28.704			-4.784
239104.000			-28.704			-4.784
239205.000			-28.704			-4.784
239304.000			-28.703			-4.784
239404.000			-28.703			-4.784
239505.000			-28.703			-4.784
239603.000			-28.702			-4.784
239704.000			-28.702			-4.784
239804.000			-28.702			-4.784
239904.000			-28.702			-4.784
240004.000			-28.703			-4.784
240104.000			-28.702			-4.784
240204.000			-28.702			-4.784
240305.000			-28.701			-4.784
240404.000			-28.701			-4.783
240504.000			-28.700			-4.783
240605.000			-28.700			-4.783
240703.000			-28.700			-4.783
240804.000			-28.699			-4.783
240905.000			-28.700			-4.783
241004.000			-28.699			-4.783
241104.000			-28.698			-4.783
241205.000			-28.698			-4.783
241304.000			-28.698			-4.783
241404.000			-28.699			-4.783
241505.000			-28.697			-4.783
241603.000			-28.697			-4.783
241704.000			-28.697			-4.783
241805.000			-28.695			-4.783
241904.000			-28.696			-4.783
242004.000			-28.695			-4.783
242105.000			-28.695			-4.782
242204.000			-28.694			-4.782
242304.000			-28.694			-4.782
242405.000			-28.694			-4.782
242503.000			-28.695			-4.782
242604.000			-28.695			-4.782
242705.000			-28.694			-4.782
242804.000			-28.694			-4.782
242904.000			-28.692			-4.782
243005.000			-28.693			-4.782
243104.000			-28.693			-4.782
243204.000			-28.691			-4.782
243305.000			-28.694			-4.782
243403.000			-28.693			-4.782
243505.000			-28.694			-4.782
243603.000			-28.693			-4.782
243704.000			-28.692			-4.782
243805.000			-28.693			-4.782
243904.000			-28.692			-4.782
244004.000			-28.692			-4.782
244105.000			-28.692			-4.782
244204.000			-28.692			-4.782
244304.000			-28.692			-4.782
244405.000			-28.691			-4.782
244503.000			-28.690			-4.782
244604.000			-28.690			-4.782
244705.000			-28.690			-4.782
244804.000			-28.691			-4.782
244904.000			-28.691			-4.782
245005.000			-28.690			-4.782
245104.000			-28.690			-4.782
245204.000			-28.690			-4.782
245305.000			-28.690			-4.782
245403.000			-28.690			-4.782
245504.000			-28.688			-4.781
245605.000			-28.689			-4.781
245704.000			-28.689			-4.782
245804.000			-28.689			-4.782
245905.000			-28.689			-4.781
246004.000			-28.688			-4.781
246104.000			-28.687			-4.781
246205.000			-28.686			-4.781
246304.000			-28.687			-4.781
246404.000			-28.687			-4.781
246503.000			-28.688			-4.781
246604.000			-28.688			-4.781
246705.000			-28.687			-4.781
246804.000			-28.686			-4.781
246904.000			-28.685			-4.781
247005.000			-28.684			-4.781
247104.000			-28.684			-4.781
247204.000			-28.684			-4.781
247305.000			-28.684			-4.781
247403.000			-28.683			-4.781
247504.000			-28.684			-4.781
247604.000			-28.683			-4.781
247704.000			-28.682			-4.780
247804.000			-28.682			-4.780
247905.000			-28.682			-4.780
248004.000			-28.681			-4.780
248104.000			-28.680			-4.780
248205.000			-28.680			-4.780
248304.000			-28.680			-4.780
248404.000			-28.679			-4.780
248504.000			-28.678			-4.780
248604.000			-28.678			-4.780
248704.000			-28.678			-4.780
248805.000			-28.678			-4.780
248904.000			-28.678			-4.780
249004.000			-28.677			-4.780
249105.000			-28.678			-4.780
249204.000			-28.678			-4.780
249304.000			-28.678			-4.780
249404.000			-28.677			-4.780
249504.000			-28.676			-4.779
249603.000			-28.676			-4.779
249705.000			-28.675			-4.779
249804.000			-28.675			-4.779
249905.000			-28.675			-4.779
250004.000			-28.675			-4.779
250104.000			-28.675			-4.779
250205.000			-28.674			-4.779
250304.000			-28.675			-4.779
250404.000			-28.675			-4.779
250504.000			-28.675			-4.779
250604.000			-28.674			-4.779
250703.000			-28.674			-4.779
250805.000			-28.674			-4.779
250904.000			-28.673			-4.779
251004.000			-28.673			-4.779
251105.000			-28.673			-4.779
251204.000			-28.673			-4.779
251304.000			-28.673			-4.779
251404.000			-28.674			-4.779
251504.000			-28.674			-4.779
251603.000			-28.674			-4.779
251705.000			-28.674			-4.779
251804.000			-28.674			-4.779
251904.000			-28.673			-4.779
252005.000			-28.674			-4.779
252104.000			-28.675			-4.779
252204.000			-28.674			-4.779
252305.000			-28.673			-4.779
252404.000			-28.673			-4.779
252503.000			-28.673			-4.779
252605.000			-28.673			-4.779
252704.000			-28.673			-4.779
252804.000			-28.672			-4.779
252905.000			-28.673			-4.779
253004.000			-28.673			-4.779
253105.000			-28.673			-4.779
253204.000			-28.673			-4.779
253304.000			-28.673			-4.779
253404.000			-28.672			-4.779
253504.000			-28.671			-4.779
253604.000			-28.672			-4.779
253705.000			-28.671			-4.779
253804.000			-28.670			-4.778
253904.000			-28.671			-4.778
254005.000			-28.671			-4.778
254104.000			-28.670			-4.778
254204.000			-28.670			-4.778
254304.000			-28.670			-4.778
254404.000			-28.670			-4.778
254503.000			-28.670			-4.778
254605.000			-28.669			-4.778
254704.000			-28.669			-4.778
254804.000			-28.669			-4.778
254905.000			-28.668			-4.778
255004.000			-28.668			-4.778
255104.000			-28.669			-4.778
255205.000			-28.668			-4.778
255304.000			-28.667			-4.778
255403.000			-28.668			-4.778
255505.000			-28.667			-4.778
255604.000			-28.668			-4.778
255704.000			-28.668			-4.778
255805.000			-28.667			-4.778
255904.000			-28.667			-4.778
256004.000			-28.667			-4.778
256104.000			-28.667			-4.778
256204.000			-28.667			-4.778
256303.000			-28.667			-4.778
256404.000			-28.665			-4.778
256503.000			-28.664			-4.777
256605.000			-28.665			-4.777
256704.000			-28.665			-4.778
256804.000			-28.665			-4.777
256905.000			-28.663			-4.777
257004.000			-28.665			-4.777
257104.000			-28.664			-4.777
257205.000			-28.664			-4.777
257304.000			-28.664			-4.777
257403.000			-28.664			-4.777
257505.000			-28.663			-4.777
257604.000			-28.664			-4.777
257704.000			-28.664			-4.777
257805.000			-28.663			-4.777
257904.000			-28.663			-4.777
258004.000			-28.664			-4.777
258105.000			-28.663			-4.777
258204.000			-28.662			-4.777
258303.000			-28.662			-4.777
258405.000			-28.662			-4.777
258504.000			-28.661			-4.777
258604.000			-28.661			-4.777
258705.000			-28.661			-4.777
258804.000			-28.662			-4.777
258904.000			-28.661			-4.777
259005.000			-28.661			-4.777
259104.000			-28.661			-4.777
259203.000			-28.660			-4.777
259305.000			-28.661			-4.777
259403.000			-28.660			-4.777
259505.000			-28.660			-4.777
259604.000			-28.660			-4.777
259704.000			-28.660			-4.777
259805.000			-28.660			-4.777
259904.000			-28.659			-4.777
260004.000			-28.658			-4.776
260105.000			-28.658			-4.776
260204.000			-28.659			-4.776
260303.000			-28.659			-4.776
260405.000			-28.658			-4.776
260504.000			-28.658			-4.776
260604.000			-28.659			-4.776
260705.000			-28.657			-4.776
260804.000			-28.657			-4.776
260904.000			-28.657			-4.776
261005.000			-28.657			-4.776
261104.000			-28.658			-4.776
261203.000			-28.658			-4.776
261305.000			-28.656			-4.776
261403.000			-28.655			-4.776
261504.000			-28.655			-4.776
261605.000			-28.655			-4.776
261704.000			-28.656			-4.776
261804.000			-28.656			-4.776
261905.000			-28.656			-4.776
262004.000			-28.655			-4.776
262104.000			-28.654			-4.776
262205.000			-28.655			-4.776
262303.000			-28.654			-4.776
262404.000			-28.655			-4.776
262505.000			-28.655			-4.776
262604.000			-28.654			-4.776
262705.000			-28.654			-4.776
262804.000			-28.653			-4.775
262904.000			-28.652			-4.775
263005.000			-28.652			-4.775
263104.000			-28.652			-4.775
263203.000			-28.652			-4.775
263305.000			-28.652			-4.775
263404.000			-28.653			-4.775
263504.000			-28.651			-4.775
263605.000			-28.652			-4.775
263704.000			-28.651			-4.775
263804.000			-28.651			-4.775
263905.000			-28.650			-4.775
264004.000			-28.651			-4.775
264103.000			-28.651			-4.775
264205.000			-28.651			-4.775
264304.000			-28.650			-4.775
264404.000			-28.650			-4.775
264505.000			-28.650			-4.775
264604.000			-28.649			-4.775
264704.000			-28.650			-4.775
264805.000			-28.649			-4.775
264904.000			-28.648			-4.775
265003.000			-28.649			-4.775
265105.000			-28.649			-4.775
265203.000			-28.648			-4.775
265304.000			-28.649			-4.775
265405.000			-28.648			-4.775
265504.000			-28.646			-4.774
265604.000			-28.646			-4.774
265704.000			-28.647			-4.775
265804.000			-28.646			-4.774
265905.000			-28.646			-4.774
266004.000			-28.646			-4.774
266103.000			-28.646			-4.774
266205.000			-28.646			-4.774
266304.000			-28.646			-4.774
266404.000			-28.645			-4.774
266505.000			-28.646			-4.774
266604.000			-28.645			-4.774
266704.000			-28.645			-4.774
266805.000			-28.646			-4.774
266904.000			-28.646			-4.774
267003.000			-28.646			-4.774
267105.000			-28.644			-4.774
267204.000			-28.643			-4.774
267304.000			-28.645			-4.774
267405.000			-28.644			-4.774
267504.000			-28.644			-4.774
267604.000			-28.644			-4.774
267705.000			-28.645			-4.774
267804.000			-28.644			-4.774
267903.000			-28.643			-4.774
268005.000			-28.642			-4.774
268103.000			-28.642			-4.774
268204.000			-28.641			-4.774
268305.000			-28.641			-4.774
268404.000			-28.641			-4.773
268504.000			-28.641			-4.774
268605.000			-28.642			-4.774
268704.000			-28.643			-4.774
268804.000			-28.642			-4.774
268905.000			-28.642			-4.774
269003.000			-28.643			-4.774
269105.000			-28.642			-4.774
269204.000			-28.640			-4.773
269304.000			-28.639			-4.773
269405.000			-28.639			-4.773
269504.000			-28.638			-4.773
269604.000			-28.637			-4.773
269705.000			-28.639			-4.773
269804.000			-28.639			-4.773
269903.000			-28.639			-4.773
270005.000			-28.638			-4.773
270104.000			-28.637			-4.773
270204.000			-28.638			-4.773
270305.000			-28.638			-4.773
270404.000			-28.637			-4.773
270504.000			-28.637			-4.773
270605.000			-28.637			-4.773
270704.000			-28.637			-4.773
270803.000			-28.637			-4.773
270905.000			-28.636			-4.773
271003.000			-28.635			-4.773
271104.000			-28.635			-4.772
271205.000			-28.635			-4.773
271304.000			-28.636			-4.773
271404.000			-28.635			-4.773
271505.000			-28.635			-4.773
271604.000			-28.634			-4.772
271703.000			-28.635			-4.772
271805.000			-28.634			-4.772
271903.000			-28.633			-4.772
272004.000			-28.634			-4.772
272105.000			-28.634			-4.772
272204.000			-28.635			-4.772
272305.000			-28.633			-4.772
272404.000			-28.634			-4.772
272504.000			-28.634			-4.772
272604.000			-28.634			-4.772
272704.000			-28.633			-4.772
272803.000			-28.634			-4.772
272905.000			-28.632			-4.772
273004.000			-28.632			-4.772
273104.000			-28.632			-4.772
273205.000			-28.631			-4.772
273304.000			-28.631			-4.772
273404.000			-28.631			-4.772
273504.000			-28.631			-4.772
273604.000			-28.630			-4.772
273703.000			-28.630			-4.772
273805.000			-28.631			-4.772
273904.000			-28.630			-4.772
274004.000			-28.630			-4.772
274105.000			-28.630			-4.772
274204.000			-28.630			-4.772
274304.000			-28.630			-4.772
274404.000			-28.629			-4.771
274504.000			-28.629			-4.771
274603.000			-28.629			-4.771
274705.000			-28.629			-4.771
274804.000			-28.629			-4.771
274904.000			-28.629			-4.771
275005.000			-28.629			-4.772
275104.000			-28.628			-4.771
275204.000			-28.627			-4.771
275304.000			-28.627			-4.771
275404.000			-28.627			-4.771
275503.000			-28.627			-4.771
275604.000			-28.628			-4.771
275704.000			-28.627			-4.771
275805.000			-28.627			-4.771
275904.000			-28.627			-4.771
276004.000			-28.626			-4.771
276105.000			-28.626			-4.771
276204.000			-28.625			-4.771
276304.000			-28.625			-4.771
276404.000			-28.625			-4.771
276504.000			-28.625			-4.771
276604.000			-28.625			-4.771
276705.000			-28.625			-4.771
276804.000			-28.625			-4.771
276904.000			-28.625			-4.771
277005.000			-28.624			-4.771
277104.000			-28.624			-4.771
277204.000			-28.624			-4.771
277304.000			-28.624			-4.771
277404.000			-28.624			-4.771
277503.000			-28.624			-4.771
277605.000			-28.623			-4.770
277704.000			-28.623			-4.771
277804.000			-28.624			-4.771
277905.000			-28.623			-4.770
278004.000			-28.623			-4.770
278104.000			-28.622			-4.770
278205.000			-28.623			-4.770
278304.000			-28.622			-4.770
278403.000			-28.621			-4.770
278505.000			-28.622			-4.770
278604.000			-28.622			-4.770
278705.000			-28.621			-4.770
278804.000			-28.622			-4.770
278904.000			-28.621			-4.770
279005.000			-28.619			-4.770
279104.000			-28.619			-4.770
279204.000			-28.620			-4.770
279304.000			-28.621			-4.770
279404.000			-28.620			-4.770
279504.000			-28.620			-4.770
279605.000			-28.621			-4.770
279704.000			-28.621			-4.770
279804.000			-28.620			-4.770
279905.000			-28.620			-4.770
280004.000			-28.620			-4.770
280104.000			-28.618			-4.770
280204.000			-28.617			-4.770
280304.000			-28.617			-4.770
280404.000			-28.617			-4.770
280505.000			-28.617			-4.769
280604.000			-28.617			-4.770
280704.000			-28.618			-4.770
280805.000			-28.617			-4.770
280904.000			-28.616			-4.769
281004.000			-28.616			-4.769
281104.000			-28.615			-4.769
281204.000			-28.615			-4.769
281303.000			-28.615			-4.769
281405.000			-28.615			-4.769
281504.000			-28.615			-4.769
281604.000			-28.615			-4.769
281705.000			-28.616			-4.769
281804.000			-28.616			-4.769
281905.000			-28.616			-4.769
282003.000			-28.614			-4.769
282104.000			-28.614			-4.769
282204.000			-28.615			-4.769
282304.000			-28.614			-4.769
282404.000			-28.612			-4.769
282505.000			-28.612			-4.769
282604.000			-28.612			-4.769
282704.000			-28.612			-4.769
282805.000			-28.612			-4.769
282903.000			-28.613			-4.769
283004.000			-28.612			-4.769
283105.000			-28.612			-4.769
283204.000			-28.613			-4.769
283304.000			-28.612			-4.769
283405.000			-28.611			-4.769
283504.000			-28.611			-4.769
283604.000			-28.612			-4.769
283705.000			-28.611			-4.768
283803.000			-28.611			-4.768
283904.000			-28.609			-4.768
284005.000			-28.609			-4.768
284104.000			-28.609			-4.768
284204.000			-28.609			-4.768
284305.000			-28.609			-4.768
284404.000			-28.609			-4.768
284504.000			-28.609			-4.768
284605.000			-28.609			-4.768
284703.000			-28.609			-4.768
284804.000			-28.609			-4.768
284903.000			-28.609			-4.768
285004.000			-28.608			-4.768
285105.000			-28.608			-4.768
285204.000			-28.608			-4.768
285304.000			-28.608			-4.768
285405.000			-28.608			-4.768
285504.000			-28.608			-4.768
285603.000			-28.608			-4.768
285705.000			-28.608			-4.768
285803.000			-28.607			-4.768
285904.000			-28.606			-4.768
286005.000			-28.606			-4.768
286104.000			-28.607			-4.768
286204.000			-28.607			-4.768
286305.000			-28.606			-4.768
286404.000			-28.605			-4.767
286504.000			-28.606			-4.768
286605.000			-28.606			-4.768
286703.000			-28.605			-4.768
286804.000			-28.606			-4.768
286905.000			-28.605			-4.768
287004.000			-28.605			-4.768
287104.000			-28.604			-4.767
287205.000			-28.604			-4.767
287304.000			-28.604			-4.767
287404.000			-28.603			-4.767
287505.000			-28.602			-4.767
287603.000			-28.603			-4.767
287704.000			-28.604			-4.767
287805.000			-28.603			-4.767
287904.000			-28.603			-4.767
288004.000			-28.602			-4.767
288104.000			-28.602			-4.767
288204.000			-28.602			-4.767
288305.000			-28.602			-4.767
288404.000			-28.601			-4.767
288503.000			-28.601			-4.767
288605.000			-28.601			-4.767
288704.000			-28.601			-4.767
288804.000			-28.601			-4.767
288905.000			-28.601			-4.767
289004.000			-28.600			-4.767
289104.000			-28.600			-4.767
289205.000			-28.600			-4.767
289304.000			-28.600			-4.767
289403.000			-28.600			-4.767
289505.000			-28.599			-4.766
289603.000			-28.599			-4.766
289704.000			-28.599			-4.766
289805.000			-28.599			-4.767
289904.000			-28.598			-4.766
290004.000			-28.598			-4.766
290105.000			-28.598			-4.766
290204.000			-28.599			-4.766
290304.000			-28.598			-4.766
290405.000			-28.597			-4.766
290504.000			-28.597			-4.766
290604.000			-28.597			-4.766
290704.000			-28.596			-4.766
290804.000			-28.597			-4.766
290904.000			-28.597			-4.766
291005.000			-28.595			-4.766
291104.000			-28.596			-4.766
291204.000			-28.595			-4.766
291305.000			-28.595			-4.766
291404.000			-28.596			-4.766
291505.000			-28.596			-4.766
291603.000			-28.594			-4.766
291704.000			-28.594			-4.766
291804.000			-28.595			-4.766
291904.000			-28.593			-4.766
292004.000			-28.594			-4.766
292105.000			-28.594			-4.766
292204.000			-28.595			-4.766
292304.000			-28.595			-4.766
292405.000			-28.595			-4.766
292504.000			-28.594			-4.766
292604.000			-28.595			-4.766
292704.000			-28.593			-4.766
292804.000			-28.592			-4.765
292904.000			-28.592			-4.765
293005.000			-28.593			-4.766
293104.000			-28.592			-4.765
293204.000			-28.593			-4.765
293305.000			-28.592			-4.765
293404.000			-28.592			-4.765
293504.000			-28.591			-4.765
293604.000			-28.590			-4.765
293704.000			-28.591			-4.765
293803.000			-28.590			-4.765
293905.000			-28.589			-4.765
294004.000			-28.590			-4.765
294104.000			-28.591			-4.765
294205.000			-28.590			-4.765
294304.000			-28.590			-4.765
294404.000			-28.590			-4.765
294504.000			-28.590			-4.765
294604.000			-28.589			-4.765
294703.000			-28.589			-4.765
294804.000			-28.589			-4.765
294904.000			-28.587			-4.765
295005.000			-28.587			-4.764
295104.000			-28.588			-4.765
295204.000			-28.587			-4.765
295305.000			-28.587			-4.764
295404.000			-28.588			-4.765
295504.000			-28.587			-4.764
295604.000			-28.586			-4.764
295704.000			-28.586			-4.764
295803.000			-28.587			-4.765
295905.000			-28.588			-4.765
296004.000			-28.587			-4.765
296104.000			-28.588			-4.765
296205.000			-28.587			-4.765
296304.000			-28.586			-4.764
296404.000			-28.585			-4.764
296505.000			-28.586			-4.764
296604.000			-28.586			-4.764
296703.000			-28.585			-4.764
296805.000			-28.584			-4.764
296903.000			-28.584			-4.764
297004.000			-28.585			-4.764
297105.000			-28.585			-4.764
297204.000			-28.584			-4.764
297304.000			-28.585			-4.764
297405.000			-28.585			-4.764
297504.000			-28.584			-4.764
297604.000			-28.584			-4.764
297705.000			-28.583			-4.764
297803.000			-28.582			-4.764
297905.000			-28.582			-4.764
298003.000			-28.582			-4.764
298104.000			-28.583			-4.764
298205.000			-28.583			-4.764
298304.000			-28.582			-4.764
298404.000			-28.581			-4.764
298505.000			-28.582			-4.764
298604.000			-28.582			-4.764
298704.000			-28.583			-4.764
298805.000			-28.582			-4.764
298903.000			-28.581			-4.764
299004.000			-28.581			-4.764
299105.000			-28.581			-4.763
299204.000			-28.580			-4.763
299304.000			-28.580			-4.763
299405.000			-28.580			-4.763
299504.000			-28.580			-4.763
299604.000			-28.580			-4.763
299705.000			-28.580			-4.763
299804.000			-28.579			-4.763
299904.000			-28.579			-4.763
