# Acquired on 08/01/2024 12:18:48 
# SPIDER: Creep_2mm_0771453C
# CREEP MEASUREMENT

# time [ms]		force [N]		stiffness [N/mm]
1.000			-4.350			-2.175
101.000			-5.475			-2.737
200.000			-6.027			-3.013
300.000			-6.126			-3.063
401.000			-6.101			-3.050
501.000			-6.081			-3.041
601.000			-6.068			-3.034
701.000			-6.057			-3.028
800.000			-6.046			-3.023
900.000			-6.036			-3.018
1001.000			-6.019			-3.009
1100.000			-6.012			-3.006
1201.000			-6.006			-3.003
1302.000			-6.001			-3.001
1400.000			-5.995			-2.998
1500.000			-5.990			-2.995
1601.000			-5.984			-2.992
1700.000			-5.979			-2.990
1800.000			-5.971			-2.985
1901.000			-5.967			-2.983
2001.000			-5.962			-2.981
2101.000			-5.959			-2.979
2201.000			-5.955			-2.978
2300.000			-5.952			-2.976
2400.000			-5.948			-2.974
2501.000			-5.943			-2.971
2600.000			-5.940			-2.970
2700.000			-5.937			-2.969
2802.000			-5.935			-2.968
2901.000			-5.933			-2.966
3000.000			-5.930			-2.965
3100.000			-5.927			-2.964
3200.000			-5.923			-2.961
3301.000			-5.920			-2.960
3400.000			-5.918			-2.959
3500.000			-5.916			-2.958
3602.000			-5.912			-2.956
3701.000			-5.910			-2.955
3800.000			-5.908			-2.954
3901.000			-5.905			-2.953
4000.000			-5.903			-2.951
4100.000			-5.902			-2.951
4201.000			-5.899			-2.950
4301.000			-5.897			-2.948
4401.000			-5.896			-2.948
4501.000			-5.894			-2.947
4600.000			-5.891			-2.946
4700.000			-5.889			-2.945
4801.000			-5.888			-2.944
4900.000			-5.886			-2.943
5000.000			-5.885			-2.942
5102.000			-5.884			-2.942
5201.000			-5.882			-2.941
5300.000			-5.881			-2.941
5401.000			-5.878			-2.939
5500.000			-5.876			-2.938
5600.000			-5.875			-2.937
5701.000			-5.873			-2.937
5801.000			-5.870			-2.935
5901.000			-5.870			-2.935
6002.000			-5.869			-2.934
6100.000			-5.866			-2.933
6200.000			-5.865			-2.933
6300.000			-5.865			-2.933
6400.000			-5.863			-2.932
6501.000			-5.862			-2.931
6601.000			-5.862			-2.931
6701.000			-5.860			-2.930
6801.000			-5.858			-2.929
6900.000			-5.856			-2.928
7000.000			-5.856			-2.928
7101.000			-5.855			-2.927
7200.000			-5.852			-2.926
7300.000			-5.852			-2.926
7402.000			-5.851			-2.925
7501.000			-5.850			-2.925
7600.000			-5.849			-2.924
7701.000			-5.848			-2.924
7800.000			-5.846			-2.923
7900.000			-5.845			-2.922
8001.000			-5.845			-2.923
8100.000			-5.844			-2.922
8201.000			-5.844			-2.922
8302.000			-5.840			-2.920
8400.000			-5.839			-2.919
8500.000			-5.838			-2.919
8601.000			-5.838			-2.919
8700.000			-5.838			-2.919
8800.000			-5.836			-2.918
8901.000			-5.834			-2.917
9001.000			-5.834			-2.917
9100.000			-5.833			-2.917
9201.000			-5.833			-2.916
9300.000			-5.832			-2.916
9400.000			-5.831			-2.916
9500.000			-5.831			-2.915
9600.000			-5.829			-2.914
9702.000			-5.827			-2.913
9801.000			-5.826			-2.913
9900.000			-5.826			-2.913
10001.000			-5.825			-2.912
10100.000			-5.824			-2.912
10200.000			-5.823			-2.912
10301.000			-5.822			-2.911
10400.000			-5.821			-2.911
10501.000			-5.819			-2.910
10602.000			-5.820			-2.910
10700.000			-5.819			-2.910
10800.000			-5.819			-2.909
10901.000			-5.817			-2.908
11000.000			-5.816			-2.908
11100.000			-5.816			-2.908
11201.000			-5.814			-2.907
11301.000			-5.815			-2.907
11401.000			-5.814			-2.907
11501.000			-5.813			-2.906
11600.000			-5.812			-2.906
11700.000			-5.811			-2.906
11801.000			-5.810			-2.905
11900.000			-5.810			-2.905
12001.000			-5.809			-2.905
12102.000			-5.808			-2.904
12200.000			-5.807			-2.903
12300.000			-5.806			-2.903
12401.000			-5.807			-2.903
12500.000			-5.806			-2.903
12600.000			-5.805			-2.903
12700.000			-5.804			-2.902
12801.000			-5.803			-2.902
12902.000			-5.803			-2.902
13000.000			-5.802			-2.901
13100.000			-5.801			-2.900
13201.000			-5.801			-2.900
13300.000			-5.800			-2.900
13400.000			-5.799			-2.899
13501.000			-5.798			-2.899
13601.000			-5.798			-2.899
13701.000			-5.798			-2.899
13801.000			-5.797			-2.898
13900.000			-5.796			-2.898
14000.000			-5.796			-2.898
14101.000			-5.796			-2.898
14200.000			-5.796			-2.898
14300.000			-5.794			-2.897
14402.000			-5.793			-2.897
14501.000			-5.794			-2.897
14601.000			-5.793			-2.896
14701.000			-5.792			-2.896
14800.000			-5.791			-2.895
14900.000			-5.790			-2.895
15001.000			-5.790			-2.895
15100.000			-5.790			-2.895
15200.000			-5.789			-2.894
15302.000			-5.789			-2.894
15401.000			-5.788			-2.894
15500.000			-5.786			-2.893
15601.000			-5.785			-2.893
15700.000			-5.785			-2.892
15800.000			-5.784			-2.892
15900.000			-5.784			-2.892
16000.000			-5.783			-2.892
16102.000			-5.783			-2.892
16201.000			-5.783			-2.891
16300.000			-5.782			-2.891
16401.000			-5.781			-2.891
16500.000			-5.780			-2.890
16600.000			-5.779			-2.890
16701.000			-5.779			-2.890
16800.000			-5.779			-2.890
16901.000			-5.778			-2.889
17002.000			-5.778			-2.889
17100.000			-5.778			-2.889
17200.000			-5.778			-2.889
17301.000			-5.777			-2.888
17400.000			-5.776			-2.888
17500.000			-5.776			-2.888
17601.000			-5.776			-2.888
17701.000			-5.776			-2.888
17801.000			-5.775			-2.888
17901.000			-5.775			-2.887
18000.000			-5.773			-2.887
18100.000			-5.772			-2.886
18201.000			-5.772			-2.886
18300.000			-5.771			-2.886
18400.000			-5.770			-2.885
18502.000			-5.771			-2.885
18601.000			-5.769			-2.885
18700.000			-5.770			-2.885
18801.000			-5.770			-2.885
18900.000			-5.769			-2.884
19000.000			-5.768			-2.884
19100.000			-5.768			-2.884
19200.000			-5.768			-2.884
19301.000			-5.767			-2.883
19401.000			-5.766			-2.883
19501.000			-5.766			-2.883
19601.000			-5.766			-2.883
19700.000			-5.766			-2.883
19800.000			-5.765			-2.882
19901.000			-5.763			-2.881
20000.000			-5.763			-2.881
20100.000			-5.762			-2.881
20202.000			-5.762			-2.881
20301.000			-5.762			-2.881
20400.000			-5.761			-2.881
20501.000			-5.762			-2.881
20600.000			-5.761			-2.881
20700.000			-5.761			-2.880
20801.000			-5.761			-2.880
20900.000			-5.759			-2.879
21001.000			-5.759			-2.879
21102.000			-5.758			-2.879
21200.000			-5.759			-2.879
21300.000			-5.758			-2.879
21401.000			-5.757			-2.879
21500.000			-5.756			-2.878
21600.000			-5.756			-2.878
21701.000			-5.756			-2.878
21801.000			-5.755			-2.878
21901.000			-5.755			-2.878
22001.000			-5.755			-2.878
22100.000			-5.753			-2.877
22200.000			-5.753			-2.877
22300.000			-5.753			-2.876
22400.000			-5.752			-2.876
22502.000			-5.752			-2.876
22601.000			-5.752			-2.876
22701.000			-5.751			-2.875
22801.000			-5.751			-2.875
22900.000			-5.750			-2.875
23000.000			-5.751			-2.875
23101.000			-5.750			-2.875
23200.000			-5.749			-2.875
23301.000			-5.750			-2.875
23402.000			-5.749			-2.874
23500.000			-5.749			-2.874
23600.000			-5.748			-2.874
23701.000			-5.748			-2.874
23800.000			-5.747			-2.874
23900.000			-5.747			-2.873
24001.000			-5.746			-2.873
24101.000			-5.745			-2.873
24201.000			-5.744			-2.872
24301.000			-5.746			-2.873
24400.000			-5.745			-2.873
24500.000			-5.745			-2.872
24601.000			-5.744			-2.872
24700.000			-5.743			-2.871
24800.000			-5.743			-2.871
24902.000			-5.743			-2.872
25001.000			-5.744			-2.872
25100.000			-5.743			-2.871
25201.000			-5.741			-2.871
25300.000			-5.742			-2.871
25400.000			-5.742			-2.871
25500.000			-5.742			-2.871
25600.000			-5.741			-2.871
25702.000			-5.740			-2.870
25801.000			-5.740			-2.870
25900.000			-5.739			-2.870
26001.000			-5.739			-2.869
26100.000			-5.739			-2.869
26200.000			-5.739			-2.869
26301.000			-5.738			-2.869
26400.000			-5.738			-2.869
26501.000			-5.737			-2.868
26602.000			-5.736			-2.868
26701.000			-5.736			-2.868
26800.000			-5.736			-2.868
26901.000			-5.737			-2.869
27000.000			-5.737			-2.869
27100.000			-5.737			-2.868
27201.000			-5.734			-2.867
27301.000			-5.734			-2.867
27401.000			-5.735			-2.867
27501.000			-5.734			-2.867
27600.000			-5.734			-2.867
27700.000			-5.734			-2.867
27801.000			-5.734			-2.867
27900.000			-5.733			-2.866
28000.000			-5.732			-2.866
28102.000			-5.733			-2.866
28201.000			-5.733			-2.866
28300.000			-5.732			-2.866
28401.000			-5.731			-2.866
28500.000			-5.731			-2.865
28600.000			-5.731			-2.865
28700.000			-5.731			-2.865
28800.000			-5.730			-2.865
28902.000			-5.729			-2.864
29001.000			-5.729			-2.864
29100.000			-5.728			-2.864
29201.000			-5.728			-2.864
29300.000			-5.728			-2.864
29400.000			-5.728			-2.864
29501.000			-5.728			-2.864
29600.000			-5.728			-2.864
29701.000			-5.727			-2.864
29802.000			-5.727			-2.863
29901.000			-5.727			-2.863
30000.000			-5.726			-2.863
30101.000			-5.726			-2.863
30200.000			-5.726			-2.863
30300.000			-5.726			-2.863
30401.000			-5.725			-2.863
30501.000			-5.725			-2.862
30601.000			-5.724			-2.862
30701.000			-5.723			-2.862
30800.000			-5.723			-2.861
30900.000			-5.722			-2.861
31001.000			-5.722			-2.861
31100.000			-5.722			-2.861
31200.000			-5.723			-2.861
31302.000			-5.723			-2.861
31401.000			-5.723			-2.861
31500.000			-5.723			-2.861
31601.000			-5.721			-2.861
31700.000			-5.721			-2.860
31800.000			-5.720			-2.860
31900.000			-5.720			-2.860
32000.000			-5.719			-2.860
32102.000			-5.719			-2.859
32201.000			-5.718			-2.859
32300.000			-5.719			-2.859
32401.000			-5.719			-2.859
32500.000			-5.718			-2.859
32600.000			-5.717			-2.859
32701.000			-5.717			-2.859
32800.000			-5.717			-2.859
32901.000			-5.718			-2.859
33002.000			-5.718			-2.859
33100.000			-5.717			-2.859
33200.000			-5.717			-2.858
33301.000			-5.716			-2.858
33400.000			-5.715			-2.858
33500.000			-5.715			-2.857
33602.000			-5.715			-2.858
33701.000			-5.715			-2.858
33801.000			-5.714			-2.857
33901.000			-5.714			-2.857
34000.000			-5.714			-2.857
34100.000			-5.713			-2.857
34201.000			-5.713			-2.857
34300.000			-5.713			-2.857
34401.000			-5.713			-2.856
34502.000			-5.713			-2.856
34600.000			-5.713			-2.857
34700.000			-5.713			-2.856
34801.000			-5.712			-2.856
34900.000			-5.713			-2.856
35000.000			-5.713			-2.856
35100.000			-5.712			-2.856
35201.000			-5.711			-2.855
35302.000			-5.710			-2.855
35400.000			-5.710			-2.855
35500.000			-5.710			-2.855
35601.000			-5.710			-2.855
35700.000			-5.710			-2.855
35800.000			-5.711			-2.855
35901.000			-5.710			-2.855
36001.000			-5.709			-2.855
36101.000			-5.709			-2.855
36201.000			-5.709			-2.855
36300.000			-5.709			-2.855
36400.000			-5.709			-2.854
36501.000			-5.708			-2.854
36600.000			-5.708			-2.854
36700.000			-5.708			-2.854
36802.000			-5.708			-2.854
36901.000			-5.709			-2.854
37000.000			-5.708			-2.854
37101.000			-5.706			-2.853
37200.000			-5.707			-2.853
37300.000			-5.707			-2.854
37401.000			-5.705			-2.852
37500.000			-5.705			-2.852
37601.000			-5.705			-2.853
37702.000			-5.705			-2.852
37800.000			-5.705			-2.852
37900.000			-5.705			-2.853
38001.000			-5.705			-2.853
38100.000			-5.705			-2.852
38200.000			-5.705			-2.852
38300.000			-5.704			-2.852
38401.000			-5.704			-2.852
38502.000			-5.704			-2.852
38600.000			-5.704			-2.852
38700.000			-5.703			-2.851
38801.000			-5.702			-2.851
38900.000			-5.702			-2.851
39000.000			-5.702			-2.851
39101.000			-5.701			-2.851
39201.000			-5.701			-2.851
39301.000			-5.702			-2.851
39401.000			-5.702			-2.851
39500.000			-5.701			-2.850
39600.000			-5.700			-2.850
39701.000			-5.701			-2.850
39800.000			-5.700			-2.850
39900.000			-5.699			-2.850
40002.000			-5.700			-2.850
40101.000			-5.700			-2.850
40200.000			-5.700			-2.850
40301.000			-5.699			-2.850
40400.000			-5.699			-2.849
40500.000			-5.698			-2.849
40601.000			-5.697			-2.849
40700.000			-5.697			-2.849
40801.000			-5.697			-2.849
40902.000			-5.697			-2.849
41000.000			-5.697			-2.849
41100.000			-5.698			-2.849
41201.000			-5.697			-2.848
41300.000			-5.697			-2.849
41400.000			-5.697			-2.849
41500.000			-5.697			-2.848
41601.000			-5.696			-2.848
41702.000			-5.695			-2.847
41800.000			-5.695			-2.847
41900.000			-5.695			-2.848
42001.000			-5.696			-2.848
42100.000			-5.696			-2.848
42200.000			-5.695			-2.848
42301.000			-5.695			-2.847
42401.000			-5.695			-2.847
42501.000			-5.693			-2.847
42601.000			-5.694			-2.847
42700.000			-5.693			-2.847
42800.000			-5.693			-2.847
42901.000			-5.693			-2.846
43000.000			-5.692			-2.846
43100.000			-5.692			-2.846
43202.000			-5.693			-2.846
43301.000			-5.692			-2.846
43400.000			-5.691			-2.845
43501.000			-5.691			-2.846
43600.000			-5.691			-2.845
43700.000			-5.691			-2.846
43801.000			-5.691			-2.846
43900.000			-5.691			-2.845
44001.000			-5.691			-2.846
44102.000			-5.691			-2.845
44200.000			-5.691			-2.845
44300.000			-5.691			-2.845
44401.000			-5.690			-2.845
44500.000			-5.690			-2.845
44600.000			-5.689			-2.844
44700.000			-5.688			-2.844
44801.000			-5.688			-2.844
44902.000			-5.688			-2.844
45000.000			-5.688			-2.844
45100.000			-5.689			-2.844
45201.000			-5.689			-2.845
45300.000			-5.688			-2.844
45400.000			-5.688			-2.844
45501.000			-5.687			-2.843
45601.000			-5.686			-2.843
45701.000			-5.687			-2.843
45801.000			-5.686			-2.843
45900.000			-5.687			-2.843
46000.000			-5.687			-2.843
46101.000			-5.687			-2.844
46200.000			-5.686			-2.843
46300.000			-5.686			-2.843
46402.000			-5.686			-2.843
46501.000			-5.687			-2.843
46600.000			-5.684			-2.842
46701.000			-5.684			-2.842
46800.000			-5.685			-2.842
46900.000			-5.686			-2.843
47001.000			-5.685			-2.842
47100.000			-5.684			-2.842
47201.000			-5.684			-2.842
47302.000			-5.684			-2.842
47400.000			-5.684			-2.842
47500.000			-5.683			-2.841
47601.000			-5.683			-2.841
47700.000			-5.683			-2.841
47800.000			-5.682			-2.841
47900.000			-5.682			-2.841
48000.000			-5.682			-2.841
48102.000			-5.681			-2.841
48201.000			-5.682			-2.841
48300.000			-5.681			-2.841
48401.000			-5.682			-2.841
48500.000			-5.682			-2.841
48600.000			-5.681			-2.841
48701.000			-5.681			-2.841
48800.000			-5.681			-2.840
48901.000			-5.680			-2.840
49002.000			-5.681			-2.840
49100.000			-5.680			-2.840
49200.000			-5.680			-2.840
49301.000			-5.680			-2.840
49400.000			-5.680			-2.840
49500.000			-5.679			-2.840
49601.000			-5.679			-2.840
49701.000			-5.679			-2.839
49801.000			-5.679			-2.840
49901.000			-5.678			-2.839
50000.000			-5.678			-2.839
50100.000			-5.678			-2.839
50201.000			-5.678			-2.839
50300.000			-5.678			-2.839
50400.000			-5.677			-2.838
50502.000			-5.677			-2.839
50601.000			-5.676			-2.838
50700.000			-5.676			-2.838
50801.000			-5.677			-2.839
50900.000			-5.677			-2.838
51000.000			-5.676			-2.838
51100.000			-5.676			-2.838
51200.000			-5.676			-2.838
51302.000			-5.676			-2.838
51401.000			-5.677			-2.838
51500.000			-5.675			-2.838
51601.000			-5.674			-2.837
51700.000			-5.675			-2.837
51800.000			-5.675			-2.837
51901.000			-5.675			-2.838
52000.000			-5.674			-2.837
52101.000			-5.674			-2.837
52202.000			-5.674			-2.837
52300.000			-5.674			-2.837
52400.000			-5.673			-2.836
52501.000			-5.673			-2.836
52600.000			-5.675			-2.837
52700.000			-5.673			-2.837
52801.000			-5.673			-2.836
52901.000			-5.674			-2.837
53001.000			-5.673			-2.836
53101.000			-5.673			-2.836
53200.000			-5.673			-2.836
53300.000			-5.672			-2.836
53401.000			-5.670			-2.835
53500.000			-5.671			-2.836
53600.000			-5.671			-2.836
53702.000			-5.671			-2.835
53801.000			-5.672			-2.836
53900.000			-5.671			-2.836
54001.000			-5.671			-2.835
54100.000			-5.670			-2.835
54200.000			-5.670			-2.835
54300.000			-5.670			-2.835
54400.000			-5.670			-2.835
54502.000			-5.670			-2.835
54601.000			-5.670			-2.835
54700.000			-5.669			-2.835
54801.000			-5.670			-2.835
54900.000			-5.669			-2.835
55000.000			-5.669			-2.834
55101.000			-5.669			-2.834
55200.000			-5.670			-2.835
55301.000			-5.670			-2.835
55402.000			-5.669			-2.834
55500.000			-5.667			-2.834
55600.000			-5.668			-2.834
55701.000			-5.668			-2.834
55800.000			-5.668			-2.834
55900.000			-5.668			-2.834
56001.000			-5.667			-2.834
56101.000			-5.667			-2.834
56201.000			-5.668			-2.834
56301.000			-5.667			-2.833
56400.000			-5.667			-2.834
56500.000			-5.666			-2.833
56601.000			-5.666			-2.833
56700.000			-5.666			-2.833
56800.000			-5.666			-2.833
56902.000			-5.666			-2.833
57001.000			-5.666			-2.833
57100.000			-5.666			-2.833
57201.000			-5.666			-2.833
57300.000			-5.665			-2.833
57400.000			-5.666			-2.833
57500.000			-5.665			-2.832
57600.000			-5.665			-2.832
57701.000			-5.665			-2.833
57801.000			-5.665			-2.832
57901.000			-5.665			-2.832
58001.000			-5.664			-2.832
58100.000			-5.663			-2.832
58200.000			-5.663			-2.832
58301.000			-5.664			-2.832
58400.000			-5.664			-2.832
58500.000			-5.663			-2.831
58602.000			-5.663			-2.831
58701.000			-5.662			-2.831
58800.000			-5.662			-2.831
58901.000			-5.662			-2.831
59000.000			-5.663			-2.832
59100.000			-5.664			-2.832
59201.000			-5.662			-2.831
59300.000			-5.663			-2.831
59401.000			-5.662			-2.831
59502.000			-5.661			-2.831
59600.000			-5.662			-2.831
59700.000			-5.662			-2.831
59801.000			-5.661			-2.831
59900.000			-5.661			-2.830
60000.000			-5.661			-2.830
60101.000			-5.660			-2.830
60201.000			-5.659			-2.830
60301.000			-5.660			-2.830
60401.000			-5.660			-2.830
60500.000			-5.659			-2.830
60600.000			-5.660			-2.830
60700.000			-5.659			-2.830
60800.000			-5.659			-2.829
60901.000			-5.659			-2.830
61001.000			-5.660			-2.830
61101.000			-5.660			-2.830
61201.000			-5.659			-2.829
61300.000			-5.659			-2.829
61400.000			-5.659			-2.830
61501.000			-5.658			-2.829
61600.000			-5.658			-2.829
61700.000			-5.658			-2.829
61802.000			-5.658			-2.829
61901.000			-5.659			-2.829
62000.000			-5.658			-2.829
62101.000			-5.657			-2.829
62200.000			-5.657			-2.828
62300.000			-5.657			-2.828
62401.000			-5.656			-2.828
62500.000			-5.656			-2.828
62601.000			-5.657			-2.828
62702.000			-5.657			-2.829
62800.000			-5.656			-2.828
62900.000			-5.655			-2.828
63001.000			-5.655			-2.827
63100.000			-5.655			-2.827
63200.000			-5.655			-2.828
63301.000			-5.656			-2.828
63401.000			-5.655			-2.827
63501.000			-5.655			-2.828
63601.000			-5.655			-2.827
63700.000			-5.654			-2.827
63800.000			-5.654			-2.827
63900.000			-5.654			-2.827
64000.000			-5.654			-2.827
64101.000			-5.654			-2.827
64201.000			-5.654			-2.827
64301.000			-5.653			-2.827
64401.000			-5.653			-2.827
64500.000			-5.653			-2.826
64600.000			-5.653			-2.827
64701.000			-5.654			-2.827
64800.000			-5.654			-2.827
64900.000			-5.653			-2.827
65002.000			-5.651			-2.826
65101.000			-5.652			-2.826
65200.000			-5.651			-2.826
65301.000			-5.652			-2.826
65400.000			-5.653			-2.827
65500.000			-5.652			-2.826
65601.000			-5.652			-2.826
65701.000			-5.652			-2.826
65801.000			-5.651			-2.825
65902.000			-5.651			-2.826
66000.000			-5.652			-2.826
66100.000			-5.652			-2.826
66201.000			-5.651			-2.826
66300.000			-5.651			-2.825
66400.000			-5.650			-2.825
66501.000			-5.651			-2.825
66601.000			-5.651			-2.826
66701.000			-5.651			-2.825
66801.000			-5.650			-2.825
66900.000			-5.650			-2.825
67000.000			-5.649			-2.825
67100.000			-5.650			-2.825
67200.000			-5.650			-2.825
67301.000			-5.648			-2.824
67401.000			-5.649			-2.824
67501.000			-5.649			-2.824
67601.000			-5.649			-2.824
67700.000			-5.649			-2.825
67800.000			-5.648			-2.824
67901.000			-5.648			-2.824
68000.000			-5.648			-2.824
68100.000			-5.649			-2.824
68202.000			-5.649			-2.824
68301.000			-5.648			-2.824
68401.000			-5.647			-2.824
68501.000			-5.648			-2.824
68600.000			-5.648			-2.824
68700.000			-5.647			-2.823
68801.000			-5.647			-2.823
68900.000			-5.647			-2.823
69000.000			-5.647			-2.823
69102.000			-5.647			-2.823
69201.000			-5.646			-2.823
69300.000			-5.647			-2.824
69401.000			-5.646			-2.823
69500.000			-5.646			-2.823
69600.000			-5.646			-2.823
69701.000			-5.645			-2.822
69800.000			-5.644			-2.822
69901.000			-5.645			-2.823
70002.000			-5.646			-2.823
70100.000			-5.645			-2.823
70200.000			-5.645			-2.822
70300.000			-5.645			-2.823
70400.000			-5.646			-2.823
70501.000			-5.645			-2.823
70600.000			-5.646			-2.823
70701.000			-5.645			-2.822
70802.000			-5.645			-2.823
70900.000			-5.644			-2.822
71000.000			-5.644			-2.822
71101.000			-5.645			-2.822
71200.000			-5.644			-2.822
71300.000			-5.644			-2.822
71401.000			-5.644			-2.822
71501.000			-5.644			-2.822
71601.000			-5.643			-2.822
71701.000			-5.642			-2.821
71800.000			-5.643			-2.822
71900.000			-5.644			-2.822
72001.000			-5.642			-2.821
72100.000			-5.642			-2.821
72200.000			-5.642			-2.821
72302.000			-5.642			-2.821
72401.000			-5.642			-2.821
72500.000			-5.641			-2.821
72601.000			-5.641			-2.821
72700.000			-5.642			-2.821
72800.000			-5.642			-2.821
72901.000			-5.641			-2.820
73000.000			-5.641			-2.820
73101.000			-5.641			-2.820
73202.000			-5.641			-2.820
73300.000			-5.640			-2.820
73400.000			-5.640			-2.820
73500.000			-5.641			-2.821
73600.000			-5.641			-2.820
73701.000			-5.639			-2.820
73800.000			-5.639			-2.819
73901.000			-5.639			-2.820
74002.000			-5.640			-2.820
74101.000			-5.639			-2.820
74200.000			-5.639			-2.819
74301.000			-5.638			-2.819
74400.000			-5.638			-2.819
74500.000			-5.638			-2.819
74601.000			-5.638			-2.819
74701.000			-5.639			-2.819
74801.000			-5.639			-2.819
74902.000			-5.638			-2.819
75000.000			-5.638			-2.819
75100.000			-5.638			-2.819
75201.000			-5.638			-2.819
75300.000			-5.638			-2.819
75400.000			-5.637			-2.819
75501.000			-5.639			-2.819
75601.000			-5.638			-2.819
75701.000			-5.636			-2.818
75801.000			-5.636			-2.818
75900.000			-5.637			-2.818
76000.000			-5.637			-2.819
76101.000			-5.637			-2.818
76200.000			-5.637			-2.818
76300.000			-5.637			-2.818
76402.000			-5.636			-2.818
76501.000			-5.635			-2.818
76600.000			-5.636			-2.818
76700.000			-5.636			-2.818
76800.000			-5.636			-2.818
76901.000			-5.635			-2.818
77000.000			-5.635			-2.818
77100.000			-5.635			-2.818
77202.000			-5.635			-2.817
77301.000			-5.634			-2.817
77401.000			-5.635			-2.818
77501.000			-5.635			-2.818
77600.000			-5.635			-2.817
77700.000			-5.635			-2.817
77801.000			-5.635			-2.817
77900.000			-5.634			-2.817
78000.000			-5.634			-2.817
78102.000			-5.634			-2.817
78201.000			-5.634			-2.817
78300.000			-5.633			-2.817
78401.000			-5.633			-2.816
78500.000			-5.633			-2.816
78600.000			-5.632			-2.816
78701.000			-5.633			-2.816
78800.000			-5.633			-2.817
78901.000			-5.634			-2.817
79002.000			-5.633			-2.816
79100.000			-5.633			-2.817
79200.000			-5.633			-2.817
79301.000			-5.632			-2.816
79400.000			-5.632			-2.816
79500.000			-5.632			-2.816
79601.000			-5.633			-2.816
79701.000			-5.633			-2.816
79802.000			-5.631			-2.816
79900.000			-5.631			-2.815
80000.000			-5.631			-2.815
80101.000			-5.630			-2.815
80200.000			-5.630			-2.815
80300.000			-5.631			-2.815
80401.000			-5.631			-2.816
80501.000			-5.630			-2.815
80601.000			-5.631			-2.815
80701.000			-5.630			-2.815
80800.000			-5.630			-2.815
80900.000			-5.631			-2.815
81001.000			-5.631			-2.815
81100.000			-5.631			-2.816
81200.000			-5.631			-2.816
81302.000			-5.630			-2.815
81401.000			-5.630			-2.815
81500.000			-5.629			-2.815
81601.000			-5.629			-2.815
81700.000			-5.630			-2.815
81800.000			-5.630			-2.815
81901.000			-5.630			-2.815
82000.000			-5.628			-2.814
82101.000			-5.628			-2.814
82202.000			-5.629			-2.815
82300.000			-5.629			-2.815
82400.000			-5.628			-2.814
82501.000			-5.628			-2.814
82600.000			-5.628			-2.814
82700.000			-5.628			-2.814
82801.000			-5.628			-2.814
82901.000			-5.628			-2.814
83002.000			-5.628			-2.814
83100.000			-5.629			-2.814
83200.000			-5.628			-2.814
83301.000			-5.628			-2.814
83400.000			-5.627			-2.814
83500.000			-5.628			-2.814
83601.000			-5.627			-2.813
83701.000			-5.626			-2.813
83801.000			-5.627			-2.813
83902.000			-5.626			-2.813
84000.000			-5.626			-2.813
84100.000			-5.625			-2.813
84201.000			-5.625			-2.813
84300.000			-5.625			-2.813
84400.000			-5.625			-2.812
84502.000			-5.626			-2.813
84601.000			-5.627			-2.813
84701.000			-5.626			-2.813
84801.000			-5.625			-2.813
84900.000			-5.626			-2.813
85000.000			-5.626			-2.813
85101.000			-5.626			-2.813
85200.000			-5.625			-2.812
85300.000			-5.625			-2.812
85402.000			-5.625			-2.812
85501.000			-5.625			-2.813
85600.000			-5.626			-2.813
85701.000			-5.626			-2.813
85800.000			-5.625			-2.812
85900.000			-5.625			-2.812
86001.000			-5.625			-2.812
86100.000			-5.623			-2.812
86202.000			-5.624			-2.812
86301.000			-5.625			-2.812
86400.000			-5.624			-2.812
86501.000			-5.625			-2.812
86600.000			-5.626			-2.813
86700.000			-5.624			-2.812
86801.000			-5.623			-2.812
86900.000			-5.624			-2.812
87001.000			-5.625			-2.812
87102.000			-5.624			-2.812
87200.000			-5.623			-2.812
87300.000			-5.624			-2.812
87401.000			-5.624			-2.812
87500.000			-5.623			-2.811
87600.000			-5.623			-2.812
87701.000			-5.624			-2.812
87801.000			-5.623			-2.811
87901.000			-5.623			-2.811
88002.000			-5.622			-2.811
88100.000			-5.621			-2.811
88200.000			-5.621			-2.811
88301.000			-5.621			-2.811
88400.000			-5.622			-2.811
88500.000			-5.622			-2.811
88601.000			-5.621			-2.811
88701.000			-5.621			-2.810
88801.000			-5.621			-2.810
88901.000			-5.621			-2.810
89000.000			-5.621			-2.811
89100.000			-5.620			-2.810
89201.000			-5.620			-2.810
89300.000			-5.621			-2.810
89400.000			-5.621			-2.810
89502.000			-5.621			-2.811
89601.000			-5.621			-2.810
89701.000			-5.621			-2.811
89800.000			-5.622			-2.811
89900.000			-5.621			-2.811
90001.000			-5.620			-2.810
90100.000			-5.620			-2.810
90200.000			-5.621			-2.811
90302.000			-5.621			-2.811
90401.000			-5.619			-2.810
90500.000			-5.620			-2.810
90601.000			-5.620			-2.810
90700.000			-5.620			-2.810
90800.000			-5.619			-2.810
90901.000			-5.620			-2.810
91000.000			-5.620			-2.810
91101.000			-5.619			-2.810
91202.000			-5.619			-2.809
91300.000			-5.618			-2.809
91400.000			-5.619			-2.809
91501.000			-5.619			-2.810
91600.000			-5.618			-2.809
91700.000			-5.618			-2.809
91801.000			-5.618			-2.809
91901.000			-5.618			-2.809
92001.000			-5.618			-2.809
92102.000			-5.618			-2.809
92200.000			-5.618			-2.809
92300.000			-5.619			-2.809
92401.000			-5.618			-2.809
92500.000			-5.618			-2.809
92600.000			-5.618			-2.809
92700.000			-5.617			-2.809
92801.000			-5.617			-2.809
92902.000			-5.617			-2.809
93000.000			-5.617			-2.809
93100.000			-5.617			-2.809
93201.000			-5.617			-2.809
93300.000			-5.616			-2.808
93400.000			-5.616			-2.808
93501.000			-5.616			-2.808
93601.000			-5.615			-2.808
93701.000			-5.615			-2.807
93801.000			-5.615			-2.807
93900.000			-5.615			-2.808
94000.000			-5.615			-2.807
94101.000			-5.615			-2.808
94200.000			-5.615			-2.807
94300.000			-5.615			-2.808
94402.000			-5.616			-2.808
94501.000			-5.615			-2.807
94600.000			-5.614			-2.807
94701.000			-5.615			-2.807
94800.000			-5.615			-2.807
94900.000			-5.614			-2.807
95001.000			-5.613			-2.807
95100.000			-5.614			-2.807
95201.000			-5.615			-2.807
95302.000			-5.614			-2.807
95400.000			-5.614			-2.807
95500.000			-5.614			-2.807
95601.000			-5.614			-2.807
95700.000			-5.614			-2.807
95800.000			-5.614			-2.807
95900.000			-5.614			-2.807
96001.000			-5.614			-2.807
96102.000			-5.614			-2.807
96200.000			-5.613			-2.806
96300.000			-5.613			-2.806
96401.000			-5.612			-2.806
96500.000			-5.613			-2.806
96600.000			-5.613			-2.806
96701.000			-5.613			-2.806
96801.000			-5.612			-2.806
96901.000			-5.611			-2.806
97001.000			-5.612			-2.806
97100.000			-5.612			-2.806
97200.000			-5.612			-2.806
97301.000			-5.612			-2.806
97400.000			-5.611			-2.806
97500.000			-5.610			-2.805
97602.000			-5.611			-2.805
97701.000			-5.612			-2.806
97801.000			-5.612			-2.806
97901.000			-5.612			-2.806
98000.000			-5.611			-2.806
98100.000			-5.611			-2.806
98201.000			-5.611			-2.806
98300.000			-5.612			-2.806
98400.000			-5.609			-2.805
98502.000			-5.610			-2.805
98601.000			-5.611			-2.805
98700.000			-5.610			-2.805
98801.000			-5.610			-2.805
98900.000			-5.609			-2.805
99000.000			-5.610			-2.805
99100.000			-5.611			-2.805
99200.000			-5.610			-2.805
99302.000			-5.610			-2.805
99401.000			-5.609			-2.804
99500.000			-5.609			-2.805
99601.000			-5.609			-2.805
99700.000			-5.608			-2.804
99800.000			-5.608			-2.804
99901.000			-5.608			-2.804
100000.000			-5.609			-2.804
100101.000			-5.609			-2.804
100202.000			-5.609			-2.804
100300.000			-5.608			-2.804
100400.000			-5.609			-2.804
100501.000			-5.609			-2.805
100600.000			-5.608			-2.804
100700.000			-5.609			-2.804
100801.000			-5.608			-2.804
100901.000			-5.608			-2.804
101001.000			-5.608			-2.804
101102.000			-5.609			-2.804
101200.000			-5.609			-2.804
101300.000			-5.607			-2.803
101401.000			-5.607			-2.804
101500.000			-5.607			-2.803
101600.000			-5.606			-2.803
101701.000			-5.607			-2.803
101801.000			-5.607			-2.803
101901.000			-5.607			-2.803
102002.000			-5.607			-2.804
102100.000			-5.607			-2.804
102200.000			-5.607			-2.803
102300.000			-5.606			-2.803
102400.000			-5.607			-2.803
102501.000			-5.607			-2.804
102600.000			-5.607			-2.803
102701.000			-5.607			-2.804
102802.000			-5.607			-2.803
102900.000			-5.606			-2.803
103000.000			-5.607			-2.803
103101.000			-5.606			-2.803
103200.000			-5.606			-2.803
103300.000			-5.605			-2.803
103401.000			-5.606			-2.803
103501.000			-5.606			-2.803
103601.000			-5.606			-2.803
103701.000			-5.606			-2.803
103800.000			-5.605			-2.802
103900.000			-5.605			-2.802
104001.000			-5.605			-2.802
104100.000			-5.605			-2.802
104200.000			-5.605			-2.803
104302.000			-5.604			-2.802
104401.000			-5.605			-2.802
104500.000			-5.605			-2.803
104601.000			-5.604			-2.802
104700.000			-5.604			-2.802
104800.000			-5.604			-2.802
104901.000			-5.604			-2.802
105000.000			-5.604			-2.802
105101.000			-5.604			-2.802
105202.000			-5.604			-2.802
105300.000			-5.603			-2.801
105400.000			-5.603			-2.802
105500.000			-5.604			-2.802
105600.000			-5.604			-2.802
105701.000			-5.602			-2.801
105800.000			-5.603			-2.801
105901.000			-5.603			-2.801
106002.000			-5.603			-2.801
106101.000			-5.603			-2.801
106200.000			-5.603			-2.801
106301.000			-5.602			-2.801
106400.000			-5.602			-2.801
106500.000			-5.602			-2.801
106601.000			-5.602			-2.801
106700.000			-5.602			-2.801
106801.000			-5.601			-2.801
106902.000			-5.601			-2.801
107000.000			-5.602			-2.801
107100.000			-5.601			-2.801
107201.000			-5.602			-2.801
107300.000			-5.601			-2.801
107400.000			-5.600			-2.800
107501.000			-5.601			-2.801
107601.000			-5.601			-2.801
107701.000			-5.600			-2.800
107801.000			-5.600			-2.800
107900.000			-5.600			-2.800
108000.000			-5.601			-2.801
108101.000			-5.601			-2.800
108200.000			-5.600			-2.800
108300.000			-5.600			-2.800
108402.000			-5.601			-2.801
108501.000			-5.601			-2.801
108600.000			-5.600			-2.800
108700.000			-5.600			-2.800
108800.000			-5.600			-2.800
108901.000			-5.600			-2.800
109000.000			-5.599			-2.800
109100.000			-5.599			-2.800
109202.000			-5.600			-2.800
109301.000			-5.600			-2.800
109400.000			-5.600			-2.800
109501.000			-5.600			-2.800
109600.000			-5.600			-2.800
109700.000			-5.600			-2.800
109801.000			-5.600			-2.800
109900.000			-5.599			-2.800
110000.000			-5.599			-2.800
110102.000			-5.599			-2.799
110201.000			-5.599			-2.800
110300.000			-5.599			-2.799
110401.000			-5.599			-2.799
110500.000			-5.599			-2.800
110600.000			-5.599			-2.799
110701.000			-5.598			-2.799
110800.000			-5.597			-2.798
110900.000			-5.598			-2.799
111002.000			-5.598			-2.799
111101.000			-5.598			-2.799
111200.000			-5.599			-2.799
111301.000			-5.598			-2.799
111400.000			-5.599			-2.799
111500.000			-5.598			-2.799
111601.000			-5.599			-2.800
111700.000			-5.598			-2.799
111802.000			-5.599			-2.799
111901.000			-5.598			-2.799
112000.000			-5.598			-2.799
112101.000			-5.598			-2.799
112200.000			-5.597			-2.799
112300.000			-5.597			-2.798
112401.000			-5.597			-2.798
112500.000			-5.597			-2.798
112600.000			-5.597			-2.799
112702.000			-5.596			-2.798
112801.000			-5.596			-2.798
112900.000			-5.596			-2.798
113001.000			-5.597			-2.799
113100.000			-5.596			-2.798
113200.000			-5.597			-2.798
113301.000			-5.597			-2.799
113400.000			-5.596			-2.798
113501.000			-5.595			-2.798
113602.000			-5.595			-2.797
113700.000			-5.596			-2.798
113800.000			-5.596			-2.798
113901.000			-5.595			-2.798
114000.000			-5.596			-2.798
114100.000			-5.596			-2.798
114201.000			-5.596			-2.798
114300.000			-5.597			-2.798
114401.000			-5.596			-2.798
114502.000			-5.595			-2.798
114600.000			-5.595			-2.798
114700.000			-5.595			-2.798
114801.000			-5.595			-2.798
114900.000			-5.594			-2.797
115000.000			-5.595			-2.797
115100.000			-5.595			-2.798
115201.000			-5.595			-2.798
115302.000			-5.596			-2.798
115400.000			-5.596			-2.798
115500.000			-5.596			-2.798
115601.000			-5.595			-2.797
115700.000			-5.594			-2.797
115800.000			-5.593			-2.797
115901.000			-5.593			-2.797
116000.000			-5.593			-2.797
116101.000			-5.594			-2.797
116202.000			-5.593			-2.797
116300.000			-5.593			-2.797
116400.000			-5.593			-2.797
116501.000			-5.593			-2.797
116600.000			-5.593			-2.796
116700.000			-5.592			-2.796
116801.000			-5.593			-2.797
116901.000			-5.594			-2.797
117001.000			-5.593			-2.797
117101.000			-5.593			-2.796
117200.000			-5.593			-2.796
117300.000			-5.593			-2.796
117401.000			-5.593			-2.796
117500.000			-5.593			-2.797
117600.000			-5.593			-2.796
117701.000			-5.593			-2.796
117801.000			-5.593			-2.796
117901.000			-5.593			-2.796
118001.000			-5.592			-2.796
118100.000			-5.591			-2.796
118200.000			-5.592			-2.796
118300.000			-5.592			-2.796
118400.000			-5.592			-2.796
118501.000			-5.592			-2.796
118601.000			-5.592			-2.796
118701.000			-5.593			-2.796
118802.000			-5.592			-2.796
118900.000			-5.592			-2.796
119000.000			-5.591			-2.796
119101.000			-5.591			-2.795
119200.000			-5.591			-2.796
119300.000			-5.592			-2.796
119401.000			-5.592			-2.796
119501.000			-5.591			-2.796
119601.000			-5.591			-2.796
119701.000			-5.590			-2.795
119800.000			-5.590			-2.795
119900.000			-5.590			-2.795
120001.000			-5.591			-2.795
120100.000			-5.591			-2.796
120200.000			-5.591			-2.796
120302.000			-5.590			-2.795
120401.000			-5.591			-2.795
120501.000			-5.591			-2.795
120601.000			-5.590			-2.795
120700.000			-5.590			-2.795
120800.000			-5.589			-2.795
120901.000			-5.590			-2.795
121000.000			-5.590			-2.795
121100.000			-5.591			-2.795
121202.000			-5.591			-2.795
121301.000			-5.589			-2.795
121400.000			-5.589			-2.794
121500.000			-5.589			-2.794
121600.000			-5.590			-2.795
121701.000			-5.588			-2.794
121800.000			-5.590			-2.795
121900.000			-5.589			-2.795
122002.000			-5.588			-2.794
122101.000			-5.588			-2.794
122201.000			-5.588			-2.794
122301.000			-5.589			-2.794
122400.000			-5.589			-2.794
122500.000			-5.589			-2.794
122601.000			-5.588			-2.794
122700.000			-5.589			-2.794
122800.000			-5.588			-2.794
122902.000			-5.588			-2.794
123001.000			-5.588			-2.794
123100.000			-5.588			-2.794
123201.000			-5.589			-2.795
123300.000			-5.588			-2.794
123400.000			-5.587			-2.794
123501.000			-5.587			-2.793
123600.000			-5.587			-2.793
123701.000			-5.588			-2.794
123802.000			-5.588			-2.794
123901.000			-5.588			-2.794
124000.000			-5.587			-2.794
124101.000			-5.587			-2.793
124200.000			-5.586			-2.793
124300.000			-5.587			-2.793
124401.000			-5.587			-2.794
124500.000			-5.587			-2.794
124602.000			-5.586			-2.793
124701.000			-5.587			-2.794
124800.000			-5.587			-2.794
124901.000			-5.587			-2.793
125000.000			-5.586			-2.793
125100.000			-5.586			-2.793
125201.000			-5.586			-2.793
125300.000			-5.586			-2.793
125400.000			-5.587			-2.793
125502.000			-5.587			-2.793
125601.000			-5.587			-2.793
125700.000			-5.585			-2.792
125801.000			-5.585			-2.793
125900.000			-5.586			-2.793
126000.000			-5.586			-2.793
126101.000			-5.586			-2.793
126200.000			-5.586			-2.793
126300.000			-5.586			-2.793
126402.000			-5.586			-2.793
126501.000			-5.586			-2.793
126600.000			-5.586			-2.793
126701.000			-5.584			-2.792
126800.000			-5.585			-2.792
126900.000			-5.585			-2.792
127001.000			-5.585			-2.792
127100.000			-5.585			-2.792
127201.000			-5.584			-2.792
127302.000			-5.584			-2.792
127400.000			-5.584			-2.792
127500.000			-5.584			-2.792
127601.000			-5.584			-2.792
127700.000			-5.584			-2.792
127800.000			-5.585			-2.792
127900.000			-5.584			-2.792
128000.000			-5.584			-2.792
128102.000			-5.585			-2.792
128201.000			-5.584			-2.792
128300.000			-5.583			-2.792
128401.000			-5.583			-2.792
128500.000			-5.584			-2.792
128600.000			-5.583			-2.792
128701.000			-5.583			-2.791
128800.000			-5.584			-2.792
128901.000			-5.583			-2.792
129002.000			-5.583			-2.791
129101.000			-5.583			-2.791
129200.000			-5.582			-2.791
129301.000			-5.583			-2.792
129400.000			-5.583			-2.792
129500.000			-5.582			-2.791
129601.000			-5.583			-2.791
129700.000			-5.584			-2.792
129801.000			-5.584			-2.792
129902.000			-5.583			-2.792
130000.000			-5.582			-2.791
130100.000			-5.583			-2.791
130201.000			-5.583			-2.791
130300.000			-5.582			-2.791
130400.000			-5.582			-2.791
130501.000			-5.582			-2.791
130601.000			-5.581			-2.791
130701.000			-5.583			-2.791
130801.000			-5.581			-2.791
130900.000			-5.582			-2.791
131000.000			-5.582			-2.791
131100.000			-5.582			-2.791
131200.000			-5.581			-2.790
131301.000			-5.581			-2.791
131400.000			-5.582			-2.791
131501.000			-5.582			-2.791
131602.000			-5.581			-2.791
131700.000			-5.582			-2.791
131800.000			-5.582			-2.791
131901.000			-5.581			-2.791
132000.000			-5.582			-2.791
132100.000			-5.580			-2.790
132201.000			-5.580			-2.790
132300.000			-5.580			-2.790
132401.000			-5.581			-2.791
132502.000			-5.581			-2.791
132600.000			-5.580			-2.790
132700.000			-5.579			-2.790
132801.000			-5.580			-2.790
132900.000			-5.580			-2.790
133000.000			-5.580			-2.790
133101.000			-5.579			-2.790
133200.000			-5.579			-2.790
133301.000			-5.580			-2.790
133402.000			-5.581			-2.790
133500.000			-5.579			-2.790
133600.000			-5.580			-2.790
133701.000			-5.579			-2.790
133800.000			-5.579			-2.789
133900.000			-5.580			-2.790
134001.000			-5.580			-2.790
134100.000			-5.580			-2.790
134202.000			-5.580			-2.790
134301.000			-5.580			-2.790
134401.000			-5.579			-2.790
134501.000			-5.580			-2.790
134600.000			-5.580			-2.790
134700.000			-5.579			-2.790
134801.000			-5.580			-2.790
134900.000			-5.580			-2.790
135000.000			-5.578			-2.789
135101.000			-5.578			-2.789
135201.000			-5.579			-2.789
135301.000			-5.579			-2.789
135401.000			-5.579			-2.789
135500.000			-5.581			-2.790
135600.000			-5.579			-2.790
135701.000			-5.578			-2.789
135800.000			-5.579			-2.790
135900.000			-5.579			-2.789
136001.000			-5.578			-2.789
136101.000			-5.578			-2.789
136201.000			-5.578			-2.789
136302.000			-5.579			-2.790
136400.000			-5.579			-2.790
136500.000			-5.579			-2.789
136601.000			-5.579			-2.789
136700.000			-5.577			-2.789
136800.000			-5.577			-2.789
136901.000			-5.578			-2.789
137000.000			-5.578			-2.789
137101.000			-5.578			-2.789
137202.000			-5.577			-2.789
137301.000			-5.577			-2.789
137400.000			-5.577			-2.788
137500.000			-5.577			-2.788
137600.000			-5.577			-2.789
137701.000			-5.579			-2.789
137800.000			-5.578			-2.789
137900.000			-5.578			-2.789
138001.000			-5.577			-2.789
138101.000			-5.577			-2.788
138201.000			-5.577			-2.789
138301.000			-5.577			-2.789
138400.000			-5.577			-2.788
138500.000			-5.577			-2.788
138601.000			-5.577			-2.788
138700.000			-5.576			-2.788
138800.000			-5.577			-2.788
138901.000			-5.577			-2.788
139000.000			-5.576			-2.788
139101.000			-5.575			-2.787
139202.000			-5.575			-2.788
139300.000			-5.576			-2.788
139400.000			-5.577			-2.788
139501.000			-5.577			-2.789
139600.000			-5.577			-2.789
139700.000			-5.577			-2.789
139801.000			-5.577			-2.789
139900.000			-5.575			-2.787
140001.000			-5.575			-2.787
140102.000			-5.575			-2.788
140201.000			-5.575			-2.788
140300.000			-5.575			-2.787
140401.000			-5.576			-2.788
140500.000			-5.576			-2.788
140600.000			-5.575			-2.788
140700.000			-5.575			-2.788
140800.000			-5.576			-2.788
140901.000			-5.576			-2.788
141001.000			-5.575			-2.787
141101.000			-5.576			-2.788
141201.000			-5.574			-2.787
141300.000			-5.575			-2.787
141400.000			-5.574			-2.787
141501.000			-5.575			-2.787
141600.000			-5.575			-2.787
141700.000			-5.575			-2.787
141801.000			-5.575			-2.787
141901.000			-5.575			-2.787
142001.000			-5.574			-2.787
142102.000			-5.574			-2.787
142200.000			-5.574			-2.787
142300.000			-5.573			-2.787
142401.000			-5.573			-2.786
142500.000			-5.573			-2.786
142600.000			-5.573			-2.787
142701.000			-5.573			-2.787
142801.000			-5.573			-2.787
142901.000			-5.573			-2.786
143002.000			-5.572			-2.786
143100.000			-5.573			-2.786
143200.000			-5.573			-2.786
143301.000			-5.573			-2.787
143400.000			-5.574			-2.787
143500.000			-5.574			-2.787
143601.000			-5.573			-2.786
143701.000			-5.573			-2.787
143802.000			-5.573			-2.786
143901.000			-5.573			-2.787
144000.000			-5.573			-2.787
144101.000			-5.572			-2.786
144200.000			-5.573			-2.786
144300.000			-5.574			-2.787
144401.000			-5.572			-2.786
144500.000			-5.571			-2.786
144600.000			-5.572			-2.786
144702.000			-5.573			-2.786
144801.000			-5.572			-2.786
144900.000			-5.573			-2.786
145001.000			-5.573			-2.786
145100.000			-5.573			-2.786
145200.000			-5.571			-2.786
145301.000			-5.572			-2.786
145400.000			-5.572			-2.786
145500.000			-5.572			-2.786
145602.000			-5.571			-2.786
145701.000			-5.571			-2.786
145801.000			-5.572			-2.786
145901.000			-5.573			-2.787
146000.000			-5.573			-2.786
146100.000			-5.571			-2.786
146201.000			-5.571			-2.785
146300.000			-5.572			-2.786
146400.000			-5.571			-2.785
146502.000			-5.571			-2.785
146601.000			-5.571			-2.786
146701.000			-5.571			-2.786
146801.000			-5.571			-2.786
146900.000			-5.572			-2.786
147000.000			-5.572			-2.786
147100.000			-5.571			-2.785
147200.000			-5.571			-2.786
147301.000			-5.571			-2.786
147401.000			-5.571			-2.785
147501.000			-5.571			-2.785
147602.000			-5.571			-2.786
147700.000			-5.571			-2.786
147800.000			-5.570			-2.785
147901.000			-5.570			-2.785
148000.000			-5.570			-2.785
148100.000			-5.570			-2.785
148201.000			-5.570			-2.785
148300.000			-5.570			-2.785
148401.000			-5.570			-2.785
148502.000			-5.569			-2.785
148601.000			-5.569			-2.784
148700.000			-5.569			-2.784
148801.000			-5.569			-2.784
148900.000			-5.569			-2.784
149000.000			-5.570			-2.785
149101.000			-5.569			-2.785
149200.000			-5.569			-2.784
149300.000			-5.569			-2.785
149402.000			-5.569			-2.784
149501.000			-5.569			-2.784
149600.000			-5.567			-2.784
149701.000			-5.568			-2.784
149800.000			-5.569			-2.785
149900.000			-5.569			-2.784
150001.000			-5.569			-2.785
150100.000			-5.570			-2.785
150200.000			-5.569			-2.784
150302.000			-5.568			-2.784
150401.000			-5.568			-2.784
150502.000			-5.568			-2.784
150600.000			-5.568			-2.784
150700.000			-5.568			-2.784
150801.000			-5.569			-2.784
150900.000			-5.569			-2.784
151000.000			-5.567			-2.784
151101.000			-5.568			-2.784
151200.000			-5.568			-2.784
151301.000			-5.567			-2.784
151402.000			-5.568			-2.784
151500.000			-5.567			-2.783
151600.000			-5.567			-2.784
151701.000			-5.568			-2.784
151800.000			-5.568			-2.784
151900.000			-5.567			-2.783
152001.000			-5.567			-2.784
152100.000			-5.567			-2.783
152201.000			-5.567			-2.784
152302.000			-5.566			-2.783
152401.000			-5.567			-2.784
152500.000			-5.566			-2.783
152601.000			-5.566			-2.783
152700.000			-5.567			-2.783
152800.000			-5.567			-2.783
152901.000			-5.566			-2.783
153000.000			-5.568			-2.784
153100.000			-5.567			-2.783
153202.000			-5.565			-2.783
153301.000			-5.566			-2.783
153400.000			-5.567			-2.783
153500.000			-5.566			-2.783
153600.000			-5.565			-2.783
153701.000			-5.565			-2.783
153800.000			-5.566			-2.783
153900.000			-5.566			-2.783
154001.000			-5.566			-2.783
154101.000			-5.566			-2.783
154201.000			-5.565			-2.782
154301.000			-5.566			-2.783
154400.000			-5.566			-2.783
154500.000			-5.566			-2.783
154601.000			-5.565			-2.783
154700.000			-5.565			-2.783
154800.000			-5.565			-2.782
154901.000			-5.566			-2.783
155001.000			-5.565			-2.783
155101.000			-5.565			-2.783
155202.000			-5.565			-2.783
155300.000			-5.565			-2.782
155400.000			-5.565			-2.782
155501.000			-5.565			-2.782
155600.000			-5.564			-2.782
155700.000			-5.564			-2.782
155801.000			-5.566			-2.783
155900.000			-5.564			-2.782
156001.000			-5.563			-2.782
156102.000			-5.564			-2.782
156200.000			-5.564			-2.782
156300.000			-5.564			-2.782
156401.000			-5.564			-2.782
156500.000			-5.563			-2.782
156600.000			-5.565			-2.783
156700.000			-5.565			-2.782
156800.000			-5.565			-2.782
156902.000			-5.564			-2.782
157001.000			-5.564			-2.782
157101.000			-5.564			-2.782
157201.000			-5.564			-2.782
157300.000			-5.563			-2.781
157400.000			-5.563			-2.781
157501.000			-5.563			-2.782
157600.000			-5.563			-2.782
157700.000			-5.564			-2.782
157801.000			-5.564			-2.782
157901.000			-5.563			-2.781
158001.000			-5.561			-2.781
158101.000			-5.564			-2.782
158200.000			-5.564			-2.782
158300.000			-5.564			-2.782
158401.000			-5.562			-2.781
158500.000			-5.562			-2.781
158600.000			-5.562			-2.781
158701.000			-5.562			-2.781
158801.000			-5.562			-2.781
158901.000			-5.564			-2.782
159002.000			-5.563			-2.782
159100.000			-5.562			-2.781
159200.000			-5.562			-2.781
159301.000			-5.563			-2.781
159400.000			-5.563			-2.782
159500.000			-5.561			-2.781
159601.000			-5.561			-2.781
159700.000			-5.561			-2.781
159802.000			-5.563			-2.781
159901.000			-5.563			-2.781
160000.000			-5.561			-2.781
160101.000			-5.560			-2.780
160200.000			-5.561			-2.780
160300.000			-5.561			-2.781
160401.000			-5.561			-2.781
160500.000			-5.561			-2.780
160600.000			-5.561			-2.781
160702.000			-5.561			-2.780
160801.000			-5.561			-2.781
160900.000			-5.561			-2.780
161001.000			-5.561			-2.780
161100.000			-5.560			-2.780
161200.000			-5.560			-2.780
161301.000			-5.560			-2.780
161400.000			-5.561			-2.780
161500.000			-5.560			-2.780
161602.000			-5.561			-2.781
161701.000			-5.559			-2.780
161801.000			-5.560			-2.780
161901.000			-5.561			-2.780
162000.000			-5.561			-2.780
162100.000			-5.561			-2.780
162201.000			-5.560			-2.780
162300.000			-5.560			-2.780
162400.000			-5.560			-2.780
162501.000			-5.560			-2.780
162601.000			-5.560			-2.780
162701.000			-5.560			-2.780
162801.000			-5.559			-2.780
162900.000			-5.560			-2.780
163000.000			-5.559			-2.780
163100.000			-5.559			-2.780
163200.000			-5.559			-2.780
163301.000			-5.559			-2.779
163400.000			-5.559			-2.780
163501.000			-5.560			-2.780
163602.000			-5.559			-2.780
163701.000			-5.560			-2.780
163800.000			-5.560			-2.780
163901.000			-5.559			-2.780
164000.000			-5.559			-2.780
164100.000			-5.559			-2.780
164201.000			-5.559			-2.779
164300.000			-5.558			-2.779
164400.000			-5.558			-2.779
164502.000			-5.559			-2.780
164601.000			-5.559			-2.780
164701.000			-5.559			-2.780
164801.000			-5.559			-2.779
164900.000			-5.559			-2.779
165000.000			-5.558			-2.779
165101.000			-5.558			-2.779
165200.000			-5.558			-2.779
165300.000			-5.558			-2.779
165402.000			-5.559			-2.779
165501.000			-5.559			-2.779
165601.000			-5.558			-2.779
165701.000			-5.558			-2.779
165800.000			-5.558			-2.779
165900.000			-5.558			-2.779
166001.000			-5.558			-2.779
166100.000			-5.558			-2.779
166200.000			-5.559			-2.779
166300.000			-5.557			-2.779
166401.000			-5.557			-2.779
166502.000			-5.557			-2.779
166601.000			-5.557			-2.778
166700.000			-5.557			-2.778
166801.000			-5.557			-2.779
166900.000			-5.557			-2.779
167000.000			-5.557			-2.778
167101.000			-5.557			-2.778
167200.000			-5.557			-2.779
167300.000			-5.557			-2.778
167402.000			-5.557			-2.779
167501.000			-5.557			-2.779
167600.000			-5.556			-2.778
167701.000			-5.556			-2.778
167800.000			-5.557			-2.778
167900.000			-5.557			-2.778
168001.000			-5.556			-2.778
168100.000			-5.555			-2.778
168200.000			-5.555			-2.778
168302.000			-5.555			-2.778
168401.000			-5.555			-2.777
168501.000			-5.555			-2.777
168601.000			-5.555			-2.778
168700.000			-5.555			-2.778
168800.000			-5.555			-2.777
168901.000			-5.556			-2.778
169000.000			-5.555			-2.778
169100.000			-5.555			-2.777
169201.000			-5.555			-2.777
169301.000			-5.555			-2.778
169402.000			-5.556			-2.778
169500.000			-5.555			-2.777
169600.000			-5.554			-2.777
169701.000			-5.556			-2.778
169800.000			-5.556			-2.778
169900.000			-5.555			-2.777
170001.000			-5.555			-2.777
170100.000			-5.554			-2.777
170201.000			-5.554			-2.777
170302.000			-5.554			-2.777
170401.000			-5.554			-2.777
170500.000			-5.555			-2.778
170601.000			-5.555			-2.777
170700.000			-5.555			-2.777
170800.000			-5.555			-2.777
170901.000			-5.555			-2.777
171000.000			-5.554			-2.777
171101.000			-5.554			-2.777
171202.000			-5.555			-2.777
171301.000			-5.554			-2.777
171400.000			-5.554			-2.777
171501.000			-5.553			-2.776
171600.000			-5.554			-2.777
171700.000			-5.553			-2.777
171801.000			-5.553			-2.777
171900.000			-5.553			-2.777
172000.000			-5.553			-2.777
172102.000			-5.553			-2.776
172201.000			-5.553			-2.777
172300.000			-5.552			-2.776
172401.000			-5.553			-2.776
172500.000			-5.553			-2.777
172600.000			-5.553			-2.776
172700.000			-5.553			-2.777
172800.000			-5.553			-2.777
172901.000			-5.553			-2.777
173001.000			-5.553			-2.777
173101.000			-5.554			-2.777
173201.000			-5.553			-2.777
173300.000			-5.552			-2.776
173400.000			-5.553			-2.776
173501.000			-5.552			-2.776
173600.000			-5.553			-2.777
173700.000			-5.553			-2.776
173801.000			-5.553			-2.777
173901.000			-5.553			-2.776
174001.000			-5.552			-2.776
174101.000			-5.552			-2.776
174200.000			-5.553			-2.776
174300.000			-5.553			-2.776
174401.000			-5.553			-2.777
174500.000			-5.552			-2.776
174600.000			-5.551			-2.775
174701.000			-5.551			-2.775
174801.000			-5.550			-2.775
174901.000			-5.553			-2.776
175001.000			-5.553			-2.776
175100.000			-5.552			-2.776
175200.000			-5.552			-2.776
175301.000			-5.551			-2.776
175400.000			-5.551			-2.775
175500.000			-5.552			-2.776
175601.000			-5.552			-2.776
175701.000			-5.551			-2.776
175802.000			-5.551			-2.776
175901.000			-5.552			-2.776
176000.000			-5.552			-2.776
176101.000			-5.552			-2.776
176200.000			-5.552			-2.776
176300.000			-5.551			-2.775
176401.000			-5.552			-2.776
176500.000			-5.552			-2.776
176600.000			-5.551			-2.776
176702.000			-5.551			-2.775
176801.000			-5.551			-2.775
176900.000			-5.550			-2.775
177001.000			-5.551			-2.775
177100.000			-5.550			-2.775
177200.000			-5.550			-2.775
177301.000			-5.549			-2.775
177400.000			-5.550			-2.775
177500.000			-5.551			-2.775
177602.000			-5.551			-2.775
177701.000			-5.550			-2.775
177800.000			-5.550			-2.775
177901.000			-5.550			-2.775
178000.000			-5.550			-2.775
178100.000			-5.550			-2.775
178201.000			-5.550			-2.775
178300.000			-5.549			-2.774
178400.000			-5.550			-2.775
178502.000			-5.550			-2.775
178601.000			-5.550			-2.775
178701.000			-5.550			-2.775
178801.000			-5.550			-2.775
178900.000			-5.550			-2.775
179000.000			-5.549			-2.774
179100.000			-5.550			-2.775
179200.000			-5.549			-2.774
179301.000			-5.549			-2.774
179400.000			-5.549			-2.775
179501.000			-5.549			-2.775
179602.000			-5.550			-2.775
179701.000			-5.549			-2.775
179800.000			-5.549			-2.774
179901.000			-5.549			-2.774
180000.000			-5.549			-2.775
180100.000			-5.548			-2.774
180201.000			-5.548			-2.774
180300.000			-5.549			-2.774
180400.000			-5.550			-2.775
180502.000			-5.550			-2.775
180601.000			-5.549			-2.774
180700.000			-5.548			-2.774
180801.000			-5.547			-2.773
180900.000			-5.548			-2.774
181000.000			-5.548			-2.774
181101.000			-5.548			-2.774
181200.000			-5.548			-2.774
181300.000			-5.548			-2.774
181402.000			-5.548			-2.774
181501.000			-5.549			-2.774
181601.000			-5.548			-2.774
181701.000			-5.548			-2.774
181800.000			-5.548			-2.774
181900.000			-5.548			-2.774
182001.000			-5.548			-2.774
182100.000			-5.547			-2.774
182200.000			-5.547			-2.773
182300.000			-5.546			-2.773
182401.000			-5.547			-2.774
182502.000			-5.548			-2.774
182600.000			-5.548			-2.774
182700.000			-5.547			-2.774
182801.000			-5.547			-2.774
182900.000			-5.546			-2.773
183000.000			-5.546			-2.773
183101.000			-5.546			-2.773
183200.000			-5.547			-2.773
183301.000			-5.547			-2.773
183402.000			-5.547			-2.773
183501.000			-5.548			-2.774
183600.000			-5.547			-2.773
183701.000			-5.547			-2.774
183800.000			-5.547			-2.774
183900.000			-5.547			-2.773
184001.000			-5.547			-2.774
184100.000			-5.547			-2.773
184200.000			-5.546			-2.773
184302.000			-5.546			-2.773
184401.000			-5.547			-2.773
184500.000			-5.547			-2.773
184601.000			-5.546			-2.773
184700.000			-5.547			-2.774
184800.000			-5.547			-2.773
184901.000			-5.546			-2.773
185000.000			-5.545			-2.773
185100.000			-5.546			-2.773
185202.000			-5.546			-2.773
185301.000			-5.546			-2.773
185402.000			-5.546			-2.773
185500.000			-5.546			-2.773
185600.000			-5.545			-2.773
185701.000			-5.546			-2.773
185800.000			-5.546			-2.773
185900.000			-5.545			-2.773
186001.000			-5.545			-2.772
186100.000			-5.545			-2.772
186201.000			-5.545			-2.773
186302.000			-5.545			-2.772
186401.000			-5.544			-2.772
186500.000			-5.545			-2.773
186601.000			-5.545			-2.773
186700.000			-5.545			-2.773
186800.000			-5.545			-2.773
186901.000			-5.545			-2.772
187000.000			-5.544			-2.772
187100.000			-5.544			-2.772
187202.000			-5.545			-2.772
187301.000			-5.545			-2.772
187400.000			-5.543			-2.772
187501.000			-5.543			-2.772
187600.000			-5.544			-2.772
187700.000			-5.544			-2.772
187801.000			-5.544			-2.772
187900.000			-5.544			-2.772
188000.000			-5.544			-2.772
188102.000			-5.545			-2.772
188201.000			-5.545			-2.772
188301.000			-5.544			-2.772
188401.000			-5.545			-2.772
188500.000			-5.544			-2.772
188600.000			-5.544			-2.772
188700.000			-5.544			-2.772
188800.000			-5.543			-2.772
188901.000			-5.544			-2.772
189000.000			-5.544			-2.772
189101.000			-5.544			-2.772
189202.000			-5.543			-2.772
189300.000			-5.543			-2.772
189400.000			-5.543			-2.772
189501.000			-5.543			-2.772
189600.000			-5.543			-2.772
189700.000			-5.542			-2.771
189801.000			-5.542			-2.771
189900.000			-5.543			-2.771
190001.000			-5.543			-2.771
190102.000			-5.543			-2.772
190201.000			-5.542			-2.771
190300.000			-5.543			-2.771
190401.000			-5.543			-2.772
190500.000			-5.543			-2.771
190600.000			-5.543			-2.771
190701.000			-5.542			-2.771
190800.000			-5.542			-2.771
190901.000			-5.542			-2.771
191002.000			-5.542			-2.771
191101.000			-5.543			-2.772
191200.000			-5.543			-2.771
191301.000			-5.542			-2.771
191400.000			-5.542			-2.771
191500.000			-5.543			-2.771
191601.000			-5.543			-2.771
191700.000			-5.541			-2.771
191800.000			-5.542			-2.771
191902.000			-5.542			-2.771
192001.000			-5.542			-2.771
192101.000			-5.542			-2.771
192200.000			-5.543			-2.771
192300.000			-5.543			-2.771
192401.000			-5.542			-2.771
192500.000			-5.542			-2.771
192600.000			-5.541			-2.770
192701.000			-5.540			-2.770
192801.000			-5.542			-2.771
192901.000			-5.541			-2.771
193001.000			-5.541			-2.771
193100.000			-5.541			-2.771
193200.000			-5.542			-2.771
193301.000			-5.541			-2.770
193400.000			-5.541			-2.770
193500.000			-5.542			-2.771
193601.000			-5.542			-2.771
193701.000			-5.541			-2.770
193801.000			-5.542			-2.771
193902.000			-5.541			-2.771
194000.000			-5.541			-2.770
194100.000			-5.540			-2.770
194201.000			-5.540			-2.770
194300.000			-5.540			-2.770
194400.000			-5.541			-2.770
194501.000			-5.541			-2.771
194600.000			-5.541			-2.770
194701.000			-5.540			-2.770
194802.000			-5.540			-2.770
194900.000			-5.541			-2.770
195000.000			-5.541			-2.771
195100.000			-5.541			-2.771
195200.000			-5.541			-2.771
195301.000			-5.540			-2.770
195400.000			-5.540			-2.770
195500.000			-5.540			-2.770
195602.000			-5.540			-2.770
195701.000			-5.540			-2.770
195801.000			-5.540			-2.770
195901.000			-5.540			-2.770
196000.000			-5.539			-2.770
196100.000			-5.539			-2.769
196201.000			-5.540			-2.770
196300.000			-5.540			-2.770
196400.000			-5.540			-2.770
196501.000			-5.540			-2.770
196601.000			-5.540			-2.770
196701.000			-5.540			-2.770
196801.000			-5.540			-2.770
196900.000			-5.540			-2.770
197000.000			-5.540			-2.770
197101.000			-5.539			-2.770
197200.000			-5.539			-2.769
197300.000			-5.538			-2.769
197401.000			-5.539			-2.769
197501.000			-5.539			-2.770
197601.000			-5.540			-2.770
197702.000			-5.540			-2.770
197800.000			-5.539			-2.770
197900.000			-5.539			-2.769
198001.000			-5.540			-2.770
198100.000			-5.540			-2.770
198200.000			-5.538			-2.769
198300.000			-5.539			-2.769
198400.000			-5.539			-2.770
198502.000			-5.538			-2.769
198601.000			-5.537			-2.769
198701.000			-5.538			-2.769
198801.000			-5.538			-2.769
198900.000			-5.538			-2.769
199000.000			-5.538			-2.769
199101.000			-5.538			-2.769
199200.000			-5.538			-2.769
199300.000			-5.538			-2.769
199401.000			-5.537			-2.769
199501.000			-5.538			-2.769
199601.000			-5.538			-2.769
199702.000			-5.538			-2.769
199800.000			-5.538			-2.769
199900.000			-5.538			-2.769
200001.000			-5.538			-2.769
200100.000			-5.538			-2.769
200200.000			-5.538			-2.769
200301.000			-5.538			-2.769
200400.000			-5.538			-2.769
200501.000			-5.538			-2.769
200602.000			-5.538			-2.769
200700.000			-5.538			-2.769
200800.000			-5.537			-2.769
200901.000			-5.537			-2.769
201000.000			-5.537			-2.768
201100.000			-5.537			-2.768
201201.000			-5.536			-2.768
201300.000			-5.536			-2.768
201402.000			-5.537			-2.769
201501.000			-5.537			-2.769
201600.000			-5.537			-2.769
201701.000			-5.537			-2.768
201800.000			-5.537			-2.769
201900.000			-5.537			-2.769
202001.000			-5.538			-2.769
202100.000			-5.537			-2.769
202200.000			-5.537			-2.768
202302.000			-5.536			-2.768
202401.000			-5.536			-2.768
202500.000			-5.537			-2.768
202601.000			-5.537			-2.768
202700.000			-5.536			-2.768
202800.000			-5.536			-2.768
202901.000			-5.536			-2.768
203000.000			-5.536			-2.768
203100.000			-5.536			-2.768
203202.000			-5.536			-2.768
203301.000			-5.537			-2.768
203401.000			-5.537			-2.768
203501.000			-5.536			-2.768
203600.000			-5.536			-2.768
203700.000			-5.536			-2.768
203801.000			-5.536			-2.768
203900.000			-5.536			-2.768
204000.000			-5.535			-2.768
204102.000			-5.535			-2.768
204201.000			-5.536			-2.768
204301.000			-5.536			-2.768
204401.000			-5.536			-2.768
204500.000			-5.536			-2.768
204600.000			-5.536			-2.768
204700.000			-5.536			-2.768
204800.000			-5.536			-2.768
204901.000			-5.535			-2.767
205000.000			-5.534			-2.767
205101.000			-5.535			-2.767
205202.000			-5.535			-2.767
205300.000			-5.535			-2.768
205400.000			-5.535			-2.767
205501.000			-5.535			-2.768
205600.000			-5.535			-2.768
205700.000			-5.535			-2.768
205801.000			-5.535			-2.768
205901.000			-5.535			-2.768
206001.000			-5.536			-2.768
206102.000			-5.536			-2.768
206200.000			-5.535			-2.768
206300.000			-5.535			-2.768
206401.000			-5.536			-2.768
206500.000			-5.536			-2.768
206600.000			-5.535			-2.768
206701.000			-5.535			-2.767
206801.000			-5.535			-2.767
206901.000			-5.535			-2.767
207002.000			-5.534			-2.767
207100.000			-5.534			-2.767
207200.000			-5.534			-2.767
207301.000			-5.534			-2.767
207400.000			-5.535			-2.767
207500.000			-5.534			-2.767
207601.000			-5.533			-2.767
207701.000			-5.534			-2.767
207802.000			-5.534			-2.767
207901.000			-5.533			-2.767
208000.000			-5.533			-2.767
208101.000			-5.533			-2.766
208200.000			-5.534			-2.767
208300.000			-5.533			-2.766
208401.000			-5.534			-2.767
208500.000			-5.534			-2.767
208600.000			-5.533			-2.767
208702.000			-5.534			-2.767
208801.000			-5.534			-2.767
208900.000			-5.533			-2.767
209001.000			-5.533			-2.767
209100.000			-5.533			-2.766
209200.000			-5.533			-2.767
209301.000			-5.533			-2.766
209400.000			-5.534			-2.767
209500.000			-5.533			-2.766
209602.000			-5.533			-2.766
209701.000			-5.533			-2.767
209800.000			-5.533			-2.767
209901.000			-5.533			-2.767
210000.000			-5.533			-2.767
210100.000			-5.533			-2.766
210201.000			-5.533			-2.767
210300.000			-5.533			-2.766
210400.000			-5.533			-2.767
210502.000			-5.533			-2.767
210601.000			-5.532			-2.766
210700.000			-5.533			-2.766
210801.000			-5.533			-2.767
210900.000			-5.533			-2.767
211000.000			-5.533			-2.767
211100.000			-5.533			-2.767
211200.000			-5.533			-2.766
211301.000			-5.532			-2.766
211401.000			-5.532			-2.766
211501.000			-5.533			-2.766
211601.000			-5.533			-2.766
211700.000			-5.533			-2.767
211800.000			-5.533			-2.767
211901.000			-5.533			-2.766
212000.000			-5.533			-2.766
212100.000			-5.532			-2.766
212201.000			-5.533			-2.766
212301.000			-5.532			-2.766
212401.000			-5.532			-2.766
212501.000			-5.532			-2.766
212600.000			-5.532			-2.766
212700.000			-5.532			-2.766
212801.000			-5.533			-2.766
212900.000			-5.533			-2.766
213000.000			-5.532			-2.766
213101.000			-5.532			-2.766
213201.000			-5.532			-2.766
213301.000			-5.532			-2.766
213401.000			-5.531			-2.766
213500.000			-5.531			-2.765
213600.000			-5.532			-2.766
213701.000			-5.532			-2.766
213800.000			-5.532			-2.766
213900.000			-5.532			-2.766
214001.000			-5.532			-2.766
214101.000			-5.532			-2.766
214202.000			-5.531			-2.766
214300.000			-5.531			-2.765
214400.000			-5.531			-2.765
214501.000			-5.531			-2.766
214600.000			-5.531			-2.765
214700.000			-5.531			-2.766
214801.000			-5.531			-2.766
214901.000			-5.531			-2.765
215001.000			-5.530			-2.765
215102.000			-5.531			-2.765
215200.000			-5.531			-2.765
215300.000			-5.530			-2.765
215401.000			-5.531			-2.765
215500.000			-5.530			-2.765
215600.000			-5.530			-2.765
215701.000			-5.530			-2.765
215801.000			-5.531			-2.765
215901.000			-5.532			-2.766
216002.000			-5.531			-2.766
216100.000			-5.531			-2.765
216200.000			-5.530			-2.765
216301.000			-5.531			-2.765
216400.000			-5.530			-2.765
216500.000			-5.529			-2.765
216601.000			-5.530			-2.765
216701.000			-5.530			-2.765
216801.000			-5.530			-2.765
216901.000			-5.531			-2.765
217000.000			-5.530			-2.765
217100.000			-5.530			-2.765
217201.000			-5.530			-2.765
217300.000			-5.530			-2.765
217400.000			-5.530			-2.765
217500.000			-5.530			-2.765
217601.000			-5.530			-2.765
217702.000			-5.531			-2.765
217800.000			-5.530			-2.765
217900.000			-5.530			-2.765
218001.000			-5.529			-2.765
218100.000			-5.529			-2.764
218200.000			-5.529			-2.764
218301.000			-5.528			-2.764
218400.000			-5.528			-2.764
218501.000			-5.528			-2.764
218602.000			-5.529			-2.764
218701.000			-5.530			-2.765
218800.000			-5.530			-2.765
218901.000			-5.529			-2.765
219000.000			-5.529			-2.764
219100.000			-5.528			-2.764
219201.000			-5.528			-2.764
219300.000			-5.529			-2.764
219400.000			-5.529			-2.764
219502.000			-5.529			-2.764
219601.000			-5.529			-2.765
219700.000			-5.528			-2.764
219801.000			-5.528			-2.764
219900.000			-5.528			-2.764
220000.000			-5.530			-2.765
220101.000			-5.529			-2.765
220200.000			-5.529			-2.764
220300.000			-5.528			-2.764
220402.000			-5.529			-2.764
220501.000			-5.528			-2.764
220602.000			-5.528			-2.764
220700.000			-5.529			-2.764
220800.000			-5.528			-2.764
220901.000			-5.527			-2.763
221000.000			-5.527			-2.764
221100.000			-5.529			-2.764
221201.000			-5.529			-2.764
221301.000			-5.528			-2.764
221401.000			-5.528			-2.764
221502.000			-5.527			-2.764
221600.000			-5.528			-2.764
221700.000			-5.527			-2.764
221801.000			-5.528			-2.764
221900.000			-5.528			-2.764
222000.000			-5.528			-2.764
222101.000			-5.528			-2.764
222200.000			-5.528			-2.764
222301.000			-5.529			-2.764
222402.000			-5.528			-2.764
222500.000			-5.527			-2.764
222600.000			-5.526			-2.763
222701.000			-5.528			-2.764
222800.000			-5.528			-2.764
222900.000			-5.529			-2.764
223001.000			-5.528			-2.764
223100.000			-5.528			-2.764
223201.000			-5.527			-2.764
223302.000			-5.527			-2.764
223400.000			-5.528			-2.764
223500.000			-5.526			-2.763
223601.000			-5.526			-2.763
223700.000			-5.526			-2.763
223800.000			-5.526			-2.763
223900.000			-5.527			-2.763
224000.000			-5.527			-2.763
224102.000			-5.527			-2.764
224201.000			-5.527			-2.763
224301.000			-5.526			-2.763
224401.000			-5.526			-2.763
224500.000			-5.526			-2.763
224600.000			-5.527			-2.763
224701.000			-5.527			-2.763
224800.000			-5.527			-2.763
224900.000			-5.526			-2.763
225002.000			-5.526			-2.763
225101.000			-5.525			-2.763
225201.000			-5.526			-2.763
225301.000			-5.526			-2.763
225400.000			-5.525			-2.763
225500.000			-5.526			-2.763
225601.000			-5.527			-2.764
225700.000			-5.525			-2.762
225800.000			-5.525			-2.763
225901.000			-5.526			-2.763
226001.000			-5.527			-2.764
226101.000			-5.526			-2.763
226201.000			-5.526			-2.763
226300.000			-5.526			-2.763
226400.000			-5.526			-2.763
226501.000			-5.525			-2.763
226600.000			-5.526			-2.763
226700.000			-5.525			-2.762
226801.000			-5.524			-2.762
226901.000			-5.526			-2.763
227002.000			-5.526			-2.763
227100.000			-5.526			-2.763
227200.000			-5.525			-2.762
227301.000			-5.525			-2.763
227400.000			-5.524			-2.762
227500.000			-5.524			-2.762
227601.000			-5.525			-2.762
227700.000			-5.525			-2.762
227801.000			-5.525			-2.762
227902.000			-5.526			-2.763
228000.000			-5.526			-2.763
228100.000			-5.525			-2.763
228201.000			-5.525			-2.762
228300.000			-5.524			-2.762
228400.000			-5.525			-2.762
228501.000			-5.525			-2.763
228600.000			-5.524			-2.762
228701.000			-5.525			-2.763
228802.000			-5.525			-2.763
228901.000			-5.526			-2.763
229000.000			-5.525			-2.762
229101.000			-5.523			-2.762
229200.000			-5.524			-2.762
229300.000			-5.525			-2.763
229401.000			-5.524			-2.762
229500.000			-5.524			-2.762
229601.000			-5.525			-2.762
229702.000			-5.524			-2.762
229801.000			-5.525			-2.763
229900.000			-5.525			-2.762
230001.000			-5.523			-2.762
230100.000			-5.524			-2.762
230200.000			-5.524			-2.762
230300.000			-5.524			-2.762
230400.000			-5.524			-2.762
230502.000			-5.525			-2.762
230601.000			-5.525			-2.762
230701.000			-5.524			-2.762
230801.000			-5.524			-2.762
230900.000			-5.523			-2.762
231000.000			-5.523			-2.762
231101.000			-5.525			-2.762
231200.000			-5.524			-2.762
231300.000			-5.523			-2.762
231402.000			-5.523			-2.762
231501.000			-5.523			-2.762
231601.000			-5.523			-2.762
231701.000			-5.523			-2.761
231800.000			-5.523			-2.762
231900.000			-5.524			-2.762
232001.000			-5.524			-2.762
232100.000			-5.523			-2.761
232200.000			-5.522			-2.761
232302.000			-5.522			-2.761
232401.000			-5.523			-2.761
232500.000			-5.522			-2.761
232601.000			-5.522			-2.761
232700.000			-5.523			-2.761
232800.000			-5.523			-2.762
232901.000			-5.521			-2.761
233000.000			-5.522			-2.761
233100.000			-5.523			-2.761
233202.000			-5.523			-2.761
233301.000			-5.522			-2.761
233400.000			-5.523			-2.761
233500.000			-5.523			-2.762
233600.000			-5.523			-2.761
233701.000			-5.523			-2.762
233800.000			-5.523			-2.761
233900.000			-5.522			-2.761
234001.000			-5.523			-2.762
234101.000			-5.523			-2.761
234201.000			-5.523			-2.761
234302.000			-5.523			-2.761
234400.000			-5.522			-2.761
234500.000			-5.522			-2.761
234601.000			-5.522			-2.761
234700.000			-5.521			-2.761
234800.000			-5.521			-2.761
234901.000			-5.522			-2.761
235001.000			-5.523			-2.761
235101.000			-5.522			-2.761
235202.000			-5.522			-2.761
235300.000			-5.521			-2.761
235400.000			-5.521			-2.761
235501.000			-5.522			-2.761
235600.000			-5.521			-2.761
235700.000			-5.521			-2.761
235801.000			-5.522			-2.761
235901.000			-5.522			-2.761
236001.000			-5.522			-2.761
236101.000			-5.522			-2.761
236200.000			-5.521			-2.761
236300.000			-5.520			-2.760
236401.000			-5.520			-2.760
236500.000			-5.521			-2.760
236600.000			-5.522			-2.761
236700.000			-5.521			-2.761
236801.000			-5.521			-2.761
236902.000			-5.522			-2.761
237001.000			-5.521			-2.761
237100.000			-5.520			-2.760
237201.000			-5.521			-2.761
237300.000			-5.521			-2.761
237400.000			-5.521			-2.761
237501.000			-5.521			-2.760
237600.000			-5.520			-2.760
237701.000			-5.520			-2.760
237802.000			-5.520			-2.760
237901.000			-5.520			-2.760
238000.000			-5.521			-2.760
238101.000			-5.521			-2.761
238200.000			-5.522			-2.761
238300.000			-5.521			-2.761
238401.000			-5.521			-2.761
238500.000			-5.519			-2.760
238601.000			-5.519			-2.760
238702.000			-5.520			-2.760
238801.000			-5.520			-2.760
238900.000			-5.521			-2.760
239001.000			-5.520			-2.760
239100.000			-5.520			-2.760
239200.000			-5.520			-2.760
239301.000			-5.520			-2.760
239400.000			-5.519			-2.760
239500.000			-5.519			-2.760
239602.000			-5.520			-2.760
239701.000			-5.520			-2.760
239800.000			-5.519			-2.759
239900.000			-5.519			-2.760
240000.000			-5.519			-2.760
240101.000			17.293			8.646
240277.000			-5.519			-2.759
240365.000			-5.519			-2.759
240452.000			-5.519			-2.760
240540.000			-5.519			-2.759
240628.000			-5.519			-2.759
240716.000			-5.519			-2.759
240804.000			-5.520			-2.760
240901.000			-5.520			-2.760
241002.000			-5.519			-2.760
241101.000			-5.518			-2.759
241200.000			-5.519			-2.759
241301.000			-5.519			-2.759
241400.000			-5.519			-2.759
241500.000			-5.518			-2.759
241601.000			-5.518			-2.759
241700.000			-5.518			-2.759
241800.000			-5.518			-2.759
241902.000			-5.519			-2.759
242001.000			-5.519			-2.759
242100.000			-5.518			-2.759
242201.000			-5.518			-2.759
242300.000			-5.518			-2.759
242400.000			-5.519			-2.760
242501.000			-5.519			-2.759
242600.000			-5.517			-2.759
242700.000			-5.518			-2.759
242802.000			-5.517			-2.758
242901.000			-5.517			-2.758
243000.000			-5.516			-2.758
243100.000			-5.518			-2.759
243200.000			-5.518			-2.759
243301.000			-5.518			-2.759
243400.000			-5.517			-2.759
243500.000			-5.517			-2.758
243601.000			-5.517			-2.759
243701.000			-5.518			-2.759
243801.000			-5.517			-2.758
243901.000			-5.517			-2.759
244000.000			-5.517			-2.758
244100.000			-5.517			-2.759
244201.000			-5.517			-2.758
244300.000			-5.516			-2.758
244400.000			-5.517			-2.758
244501.000			-5.517			-2.758
244601.000			-5.517			-2.759
244701.000			-5.517			-2.758
244801.000			-5.517			-2.758
244900.000			-5.516			-2.758
245000.000			-5.516			-2.758
245101.000			-5.516			-2.758
245200.000			-5.517			-2.758
245300.000			-5.517			-2.759
245401.000			-5.516			-2.758
245501.000			-5.516			-2.758
245601.000			-5.516			-2.758
245701.000			-5.517			-2.759
245800.000			-5.516			-2.758
245900.000			-5.516			-2.758
246001.000			-5.516			-2.758
246100.000			-5.516			-2.758
246200.000			-5.517			-2.758
246300.000			-5.517			-2.758
246401.000			-5.517			-2.759
246502.000			-5.517			-2.758
246601.000			-5.516			-2.758
246700.000			-5.516			-2.758
246801.000			-5.517			-2.758
246900.000			-5.515			-2.758
247000.000			-5.514			-2.757
247101.000			-5.515			-2.758
247200.000			-5.516			-2.758
247301.000			-5.515			-2.758
247402.000			-5.516			-2.758
247501.000			-5.515			-2.758
247600.000			-5.515			-2.757
247701.000			-5.516			-2.758
247800.000			-5.516			-2.758
247900.000			-5.516			-2.758
248001.000			-5.516			-2.758
248100.000			-5.515			-2.758
248200.000			-5.516			-2.758
248302.000			-5.516			-2.758
248401.000			-5.515			-2.757
248500.000			-5.515			-2.757
248601.000			-5.516			-2.758
248700.000			-5.516			-2.758
248800.000			-5.514			-2.757
248901.000			-5.516			-2.758
249000.000			-5.515			-2.757
249100.000			-5.514			-2.757
249202.000			-5.515			-2.758
249301.000			-5.515			-2.757
249402.000			-5.515			-2.758
249500.000			-5.515			-2.758
249600.000			-5.513			-2.757
249701.000			-5.515			-2.757
249800.000			-5.515			-2.757
249900.000			-5.515			-2.758
250001.000			-5.515			-2.757
250100.000			-5.514			-2.757
250201.000			-5.514			-2.757
250302.000			-5.516			-2.758
250400.000			-5.515			-2.758
250500.000			-5.515			-2.757
250601.000			-5.516			-2.758
250700.000			-5.514			-2.757
250800.000			-5.513			-2.757
250901.000			-5.513			-2.756
251000.000			-5.514			-2.757
251101.000			-5.514			-2.757
251202.000			-5.515			-2.757
251301.000			-5.515			-2.758
251400.000			-5.514			-2.757
251501.000			-5.513			-2.756
251600.000			-5.513			-2.756
251700.000			-5.514			-2.757
251801.000			-5.514			-2.757
251900.000			-5.514			-2.757
252001.000			-5.514			-2.757
252102.000			-5.515			-2.757
252201.000			-5.514			-2.757
252300.000			-5.514			-2.757
252401.000			-5.513			-2.757
252500.000			-5.513			-2.757
252600.000			-5.514			-2.757
252700.000			-5.513			-2.757
252800.000			-5.514			-2.757
252902.000			-5.514			-2.757
253001.000			-5.514			-2.757
253101.000			-5.514			-2.757
253201.000			-5.513			-2.757
253300.000			-5.514			-2.757
253400.000			-5.514			-2.757
253501.000			-5.514			-2.757
253600.000			-5.514			-2.757
253700.000			-5.513			-2.757
253801.000			-5.514			-2.757
253901.000			-5.513			-2.757
254001.000			-5.512			-2.756
254101.000			-5.512			-2.756
254200.000			-5.513			-2.757
254300.000			-5.513			-2.757
254401.000			-5.514			-2.757
254500.000			-5.513			-2.756
254600.000			-5.513			-2.757
254701.000			-5.513			-2.756
254801.000			-5.513			-2.756
254901.000			-5.512			-2.756
255001.000			-5.512			-2.756
255100.000			-5.512			-2.756
255200.000			-5.512			-2.756
255301.000			-5.513			-2.756
255400.000			-5.513			-2.756
255500.000			-5.513			-2.756
255601.000			-5.513			-2.756
255701.000			-5.512			-2.756
255802.000			-5.512			-2.756
255900.000			-5.513			-2.757
256000.000			-5.513			-2.756
256101.000			-5.512			-2.756
256200.000			-5.512			-2.756
256300.000			-5.512			-2.756
256401.000			-5.512			-2.756
256500.000			-5.513			-2.757
256601.000			-5.512			-2.756
256702.000			-5.511			-2.756
256800.000			-5.512			-2.756
256900.000			-5.512			-2.756
257001.000			-5.512			-2.756
257100.000			-5.512			-2.756
257200.000			-5.512			-2.756
257301.000			-5.512			-2.756
257400.000			-5.511			-2.756
257501.000			-5.511			-2.755
257602.000			-5.511			-2.756
257700.000			-5.511			-2.755
257800.000			-5.511			-2.755
257901.000			-5.510			-2.755
258000.000			-5.509			-2.755
258100.000			-5.510			-2.755
258201.000			-5.511			-2.756
258300.000			-5.511			-2.756
258401.000			-5.512			-2.756
258502.000			-5.511			-2.756
258600.000			-5.511			-2.755
258700.000			-5.512			-2.756
258801.000			-5.512			-2.756
258900.000			-5.512			-2.756
259000.000			-5.512			-2.756
259100.000			-5.510			-2.755
259200.000			-5.511			-2.755
259302.000			-5.510			-2.755
259401.000			-5.511			-2.755
259501.000			-5.510			-2.755
259601.000			-5.511			-2.755
259700.000			-5.511			-2.756
259800.000			-5.509			-2.755
259901.000			-5.510			-2.755
260000.000			-5.511			-2.755
260100.000			-5.510			-2.755
260202.000			-5.510			-2.755
260301.000			-5.511			-2.755
260400.000			-5.510			-2.755
260501.000			-5.511			-2.755
260600.000			-5.511			-2.756
260700.000			-5.511			-2.756
260801.000			-5.511			-2.755
260900.000			-5.510			-2.755
261000.000			-5.511			-2.755
261102.000			-5.509			-2.755
261201.000			-5.510			-2.755
261301.000			-5.510			-2.755
261401.000			-5.510			-2.755
261500.000			-5.511			-2.755
261600.000			-5.510			-2.755
261701.000			-5.510			-2.755
261800.000			-5.509			-2.755
261900.000			-5.509			-2.755
262002.000			-5.511			-2.756
262101.000			-5.510			-2.755
262202.000			-5.509			-2.755
262300.000			-5.509			-2.754
262400.000			-5.509			-2.754
262501.000			-5.511			-2.755
262600.000			-5.511			-2.755
262700.000			-5.510			-2.755
262801.000			-5.509			-2.754
262901.000			-5.509			-2.754
263001.000			-5.509			-2.754
263102.000			-5.509			-2.755
263200.000			-5.510			-2.755
263300.000			-5.511			-2.755
263401.000			-5.509			-2.755
263500.000			-5.510			-2.755
263600.000			-5.510			-2.755
263701.000			-5.510			-2.755
263800.000			-5.509			-2.754
263901.000			-5.509			-2.754
264002.000			-5.508			-2.754
264100.000			-5.509			-2.754
264200.000			-5.509			-2.755
264301.000			-5.509			-2.754
264400.000			-5.509			-2.755
264500.000			-5.508			-2.754
264601.000			-5.509			-2.754
264700.000			-5.509			-2.754
264801.000			-5.508			-2.754
264902.000			-5.509			-2.754
265001.000			-5.509			-2.754
265100.000			-5.509			-2.754
265201.000			-5.509			-2.754
265300.000			-5.509			-2.755
265400.000			-5.510			-2.755
265500.000			-5.510			-2.755
265600.000			-5.508			-2.754
265701.000			-5.509			-2.754
265801.000			-5.509			-2.754
265901.000			-5.508			-2.754
266001.000			-5.509			-2.754
266100.000			-5.509			-2.755
266200.000			-5.509			-2.755
266301.000			-5.509			-2.754
266400.000			-5.509			-2.754
266500.000			-5.509			-2.754
266601.000			-5.508			-2.754
266701.000			-5.508			-2.754
266801.000			-5.508			-2.754
266902.000			-5.508			-2.754
267000.000			-5.508			-2.754
267100.000			-5.509			-2.754
267201.000			-5.509			-2.754
267300.000			-5.508			-2.754
267400.000			-5.507			-2.754
267501.000			-5.507			-2.753
267601.000			-5.508			-2.754
267701.000			-5.510			-2.755
267802.000			-5.507			-2.753
267900.000			-5.507			-2.753
268000.000			-5.507			-2.753
268101.000			-5.507			-2.754
268200.000			-5.508			-2.754
268300.000			-5.508			-2.754
268401.000			-5.508			-2.754
268500.000			-5.508			-2.754
268602.000			-5.507			-2.754
268701.000			-5.506			-2.753
268801.000			-5.507			-2.754
268901.000			-5.507			-2.754
269000.000			-5.506			-2.753
269100.000			-5.507			-2.753
269201.000			-5.507			-2.753
269300.000			-5.506			-2.753
269400.000			-5.507			-2.753
269502.000			-5.507			-2.753
269601.000			-5.507			-2.753
269701.000			-5.508			-2.754
269801.000			-5.507			-2.754
269900.000			-5.508			-2.754
270000.000			-5.507			-2.754
270101.000			-5.506			-2.753
270200.000			-5.506			-2.753
270300.000			-5.506			-2.753
270401.000			-5.507			-2.753
270501.000			-5.507			-2.753
270601.000			-5.507			-2.753
270701.000			-5.506			-2.753
270800.000			-5.507			-2.754
270900.000			-5.507			-2.753
271001.000			-5.506			-2.753
271100.000			-5.506			-2.753
271200.000			-5.506			-2.753
271301.000			-5.506			-2.753
271401.000			-5.507			-2.753
271501.000			-5.507			-2.753
271601.000			-5.506			-2.753
271700.000			-5.506			-2.753
271800.000			-5.506			-2.753
271900.000			-5.505			-2.752
272000.000			-5.506			-2.753
272101.000			-5.505			-2.753
272200.000			-5.506			-2.753
272301.000			-5.506			-2.753
272402.000			-5.505			-2.752
272500.000			-5.505			-2.753
272600.000			-5.506			-2.753
272701.000			-5.506			-2.753
272800.000			-5.505			-2.753
272900.000			-5.505			-2.752
273001.000			-5.505			-2.753
273100.000			-5.505			-2.752
273201.000			-5.505			-2.752
273302.000			-5.505			-2.753
273401.000			-5.505			-2.753
273500.000			-5.505			-2.752
273601.000			-5.506			-2.753
273700.000			-5.506			-2.753
273800.000			-5.506			-2.753
273901.000			-5.506			-2.753
274000.000			-5.505			-2.753
274101.000			-5.505			-2.752
274202.000			-5.505			-2.753
274301.000			-5.505			-2.752
274400.000			-5.506			-2.753
274501.000			-5.506			-2.753
274600.000			-5.505			-2.752
274700.000			-5.505			-2.752
274801.000			-5.506			-2.753
274900.000			-5.505			-2.752
275000.000			-5.505			-2.753
275102.000			-5.506			-2.753
275201.000			-5.506			-2.753
275301.000			-5.505			-2.752
275400.000			-5.504			-2.752
275500.000			-5.505			-2.752
275601.000			-5.504			-2.752
275700.000			-5.504			-2.752
275800.000			-5.504			-2.752
275901.000			-5.503			-2.752
276001.000			-5.504			-2.752
276101.000			-5.504			-2.752
276201.000			-5.505			-2.752
276300.000			-5.505			-2.752
276400.000			-5.504			-2.752
276501.000			-5.504			-2.752
276600.000			-5.503			-2.752
276700.000			-5.504			-2.752
276801.000			-5.503			-2.752
276901.000			-5.503			-2.751
277001.000			-5.503			-2.752
277101.000			-5.504			-2.752
277200.000			-5.503			-2.751
277300.000			-5.504			-2.752
277401.000			-5.504			-2.752
277500.000			-5.503			-2.752
277600.000			-5.504			-2.752
277701.000			-5.504			-2.752
277801.000			-5.504			-2.752
277901.000			-5.503			-2.751
278002.000			-5.503			-2.751
278100.000			-5.503			-2.751
278200.000			-5.504			-2.752
278300.000			-5.504			-2.752
278400.000			-5.503			-2.751
278501.000			-5.503			-2.751
278600.000			-5.503			-2.751
278700.000			-5.504			-2.752
278802.000			-5.503			-2.751
278901.000			-5.503			-2.751
279000.000			-5.503			-2.752
279101.000			-5.503			-2.752
279200.000			-5.503			-2.752
279300.000			-5.504			-2.752
279401.000			-5.502			-2.751
279500.000			-5.502			-2.751
279600.000			-5.502			-2.751
279702.000			-5.503			-2.751
279801.000			-5.503			-2.752
279900.000			-5.503			-2.752
280001.000			-5.503			-2.751
280100.000			-5.502			-2.751
280200.000			-5.502			-2.751
280301.000			-5.502			-2.751
280400.000			-5.503			-2.751
280500.000			-5.502			-2.751
280602.000			-5.502			-2.751
280701.000			-5.502			-2.751
280800.000			-5.501			-2.751
280901.000			-5.501			-2.750
281000.000			-5.501			-2.751
281100.000			-5.502			-2.751
281201.000			-5.503			-2.751
281300.000			-5.503			-2.751
281400.000			-5.503			-2.751
281502.000			-5.502			-2.751
281601.000			-5.503			-2.751
281701.000			-5.502			-2.751
281800.000			-5.503			-2.751
281900.000			-5.502			-2.751
282001.000			-5.502			-2.751
282100.000			-5.503			-2.751
282200.000			-5.503			-2.751
282301.000			-5.502			-2.751
282401.000			-5.502			-2.751
282501.000			-5.502			-2.751
282601.000			-5.502			-2.751
282700.000			-5.501			-2.750
282800.000			-5.501			-2.750
282901.000			-5.502			-2.751
283000.000			-5.501			-2.750
283100.000			-5.501			-2.750
283201.000			-5.501			-2.751
283301.000			-5.502			-2.751
283401.000			-5.501			-2.750
283501.000			-5.500			-2.750
283600.000			-5.501			-2.751
283700.000			-5.502			-2.751
283801.000			-5.502			-2.751
283900.000			-5.501			-2.750
284000.000			-5.501			-2.751
284101.000			-5.502			-2.751
284201.000			-5.502			-2.751
284301.000			-5.501			-2.750
284401.000			-5.500			-2.750
284500.000			-5.501			-2.750
284600.000			-5.501			-2.750
284700.000			-5.501			-2.750
284800.000			-5.501			-2.750
284901.000			-5.500			-2.750
285000.000			-5.500			-2.750
285101.000			-5.501			-2.751
285202.000			-5.501			-2.751
285300.000			-5.500			-2.750
285400.000			-5.501			-2.750
285501.000			-5.501			-2.751
285600.000			-5.502			-2.751
285700.000			-5.501			-2.750
285801.000			-5.502			-2.751
285900.000			-5.501			-2.751
286001.000			-5.501			-2.751
286102.000			-5.500			-2.750
286200.000			-5.500			-2.750
286300.000			-5.500			-2.750
286401.000			-5.500			-2.750
286500.000			-5.500			-2.750
286600.000			-5.500			-2.750
286701.000			-5.500			-2.750
286800.000			-5.501			-2.750
286901.000			-5.501			-2.751
287002.000			-5.500			-2.750
287101.000			-5.501			-2.750
287200.000			-5.501			-2.750
287301.000			-5.501			-2.750
287400.000			-5.500			-2.750
287500.000			-5.499			-2.750
287601.000			-5.499			-2.750
287700.000			-5.499			-2.750
287800.000			-5.500			-2.750
287902.000			-5.500			-2.750
288001.000			-5.500			-2.750
288101.000			-5.501			-2.750
288200.000			-5.501			-2.750
288300.000			-5.501			-2.750
288401.000			-5.499			-2.750
288500.000			-5.500			-2.750
288600.000			-5.501			-2.750
288701.000			-5.500			-2.750
288801.000			-5.500			-2.750
288901.000			-5.499			-2.750
289002.000			-5.500			-2.750
289100.000			-5.499			-2.749
289200.000			-5.499			-2.750
289301.000			-5.498			-2.749
289400.000			-5.499			-2.749
289500.000			-5.500			-2.750
289601.000			-5.500			-2.750
289700.000			-5.500			-2.750
289801.000			-5.500			-2.750
289902.000			-5.499			-2.749
290001.000			-5.499			-2.749
290100.000			-5.498			-2.749
290201.000			-5.498			-2.749
290300.000			-5.500			-2.750
290400.000			-5.499			-2.750
290501.000			-5.498			-2.749
290600.000			-5.498			-2.749
290700.000			-5.498			-2.749
290802.000			-5.498			-2.749
290901.000			-5.498			-2.749
291000.000			-5.499			-2.749
291100.000			-5.499			-2.750
291200.000			-5.498			-2.749
291301.000			-5.498			-2.749
291400.000			-5.498			-2.749
291500.000			-5.498			-2.749
291601.000			-5.497			-2.749
291701.000			-5.499			-2.749
291801.000			-5.499			-2.750
291902.000			-5.500			-2.750
292000.000			-5.499			-2.749
292100.000			-5.499			-2.749
292201.000			-5.499			-2.750
292300.000			-5.499			-2.750
292400.000			-5.499			-2.750
292501.000			-5.497			-2.748
292600.000			-5.496			-2.748
292701.000			-5.497			-2.749
292802.000			-5.498			-2.749
292901.000			-5.497			-2.748
293000.000			-5.498			-2.749
293101.000			-5.497			-2.749
293200.000			-5.497			-2.749
293300.000			-5.497			-2.749
293401.000			-5.498			-2.749
293500.000			-5.498			-2.749
293600.000			-5.498			-2.749
293702.000			-5.498			-2.749
293801.000			-5.498			-2.749
293900.000			-5.497			-2.749
294001.000			-5.498			-2.749
294100.000			-5.497			-2.749
294200.000			-5.498			-2.749
294300.000			-5.498			-2.749
294400.000			-5.497			-2.748
294501.000			-5.497			-2.748
294601.000			-5.497			-2.748
294701.000			-5.498			-2.749
294802.000			-5.498			-2.749
294900.000			-5.498			-2.749
295000.000			-5.498			-2.749
295101.000			-5.497			-2.749
295200.000			-5.498			-2.749
295300.000			-5.497			-2.748
295401.000			-5.497			-2.749
295500.000			-5.497			-2.748
295601.000			-5.496			-2.748
295702.000			-5.496			-2.748
295801.000			-5.496			-2.748
295900.000			-5.496			-2.748
296001.000			-5.498			-2.749
296100.000			-5.497			-2.748
296200.000			-5.496			-2.748
296301.000			-5.497			-2.748
296400.000			-5.498			-2.749
296500.000			-5.497			-2.749
296602.000			-5.495			-2.748
296701.000			-5.495			-2.748
296801.000			-5.495			-2.748
296901.000			-5.495			-2.748
297000.000			-5.496			-2.748
297100.000			-5.495			-2.748
297201.000			-5.496			-2.748
297300.000			-5.497			-2.748
297400.000			-5.496			-2.748
297500.000			-5.496			-2.748
297601.000			-5.497			-2.749
297702.000			-5.496			-2.748
297801.000			-5.496			-2.748
297900.000			-5.496			-2.748
298001.000			-5.495			-2.747
298100.000			-5.496			-2.748
298200.000			-5.496			-2.748
298301.000			-5.496			-2.748
298400.000			-5.496			-2.748
298500.000			-5.496			-2.748
298602.000			-5.496			-2.748
298701.000			-5.495			-2.748
298801.000			-5.495			-2.747
298901.000			-5.495			-2.747
299000.000			-5.495			-2.748
299100.000			-5.495			-2.748
299201.000			-5.495			-2.748
299300.000			-5.495			-2.747
299400.000			-5.494			-2.747
299501.000			-5.495			-2.747
299601.000			-5.495			-2.748
299701.000			-5.495			-2.748
299802.000			-5.495			-2.747
299900.000			-5.495			-2.747
