# Acquired on 26/01/2024 10:27:50 
# SPIDER: Creep_-3mm_HM077x145x38AA-1
# CREEP MEASUREMENT

# time [ms]		force [N]		stiffness [N/mm]
1.000			12.457			-4.152
104.000			13.365			-4.455
203.000			13.637			-4.546
305.000			13.618			-4.539
404.000			13.579			-4.526
504.000			13.531			-4.510
605.000			13.511			-4.504
703.000			13.494			-4.498
804.000			13.480			-4.493
905.000			13.466			-4.489
1004.000			13.454			-4.485
1104.000			13.442			-4.481
1204.000			13.421			-4.474
1304.000			13.412			-4.471
1404.000			13.403			-4.468
1505.000			13.394			-4.465
1604.000			13.386			-4.462
1704.000			13.378			-4.459
1805.000			13.370			-4.457
1903.000			13.364			-4.455
2005.000			13.350			-4.450
2104.000			13.344			-4.448
2204.000			13.338			-4.446
2305.000			13.333			-4.444
2404.000			13.326			-4.442
2504.000			13.321			-4.440
2605.000			13.316			-4.439
2704.000			13.306			-4.435
2804.000			13.302			-4.434
2905.000			13.295			-4.432
3004.000			13.291			-4.430
3103.000			13.288			-4.429
3205.000			13.284			-4.428
3304.000			13.279			-4.426
3404.000			13.271			-4.424
3505.000			13.266			-4.422
3604.000			13.263			-4.421
3704.000			13.260			-4.420
3805.000			13.256			-4.419
3904.000			13.253			-4.418
4004.000			13.249			-4.416
4105.000			13.246			-4.415
4204.000			13.240			-4.413
4303.000			13.237			-4.412
4405.000			13.235			-4.412
4504.000			13.231			-4.410
4604.000			13.228			-4.409
4705.000			13.226			-4.409
4804.000			13.222			-4.407
4904.000			13.216			-4.405
5004.000			13.214			-4.405
5104.000			13.211			-4.404
5205.000			13.208			-4.403
5304.000			13.206			-4.402
5404.000			13.203			-4.401
5504.000			13.200			-4.400
5604.000			13.195			-4.398
5704.000			13.192			-4.397
5805.000			13.190			-4.397
5904.000			13.188			-4.396
6004.000			13.185			-4.395
6105.000			13.183			-4.394
6203.000			13.181			-4.394
6304.000			13.177			-4.392
6405.000			13.172			-4.391
6504.000			13.170			-4.390
6604.000			13.170			-4.390
6704.000			13.168			-4.389
6804.000			13.165			-4.388
6904.000			13.161			-4.387
7005.000			13.159			-4.386
7104.000			13.156			-4.385
7204.000			13.155			-4.385
7305.000			13.152			-4.384
7403.000			13.150			-4.383
7504.000			13.148			-4.383
7605.000			13.146			-4.382
7704.000			13.145			-4.382
7804.000			13.141			-4.380
7904.000			13.139			-4.380
8004.000			13.136			-4.379
8104.000			13.134			-4.378
8205.000			13.132			-4.377
8304.000			13.131			-4.377
8405.000			13.129			-4.376
8504.000			13.127			-4.376
8603.000			13.125			-4.375
8705.000			13.123			-4.374
8804.000			13.120			-4.373
8904.000			13.118			-4.373
9005.000			13.117			-4.372
9103.000			13.116			-4.372
9204.000			13.114			-4.371
9305.000			13.110			-4.370
9404.000			13.109			-4.370
9504.000			13.108			-4.369
9605.000			13.106			-4.369
9704.000			13.105			-4.368
9803.000			13.104			-4.368
9905.000			13.102			-4.367
10004.000			13.099			-4.366
10104.000			13.098			-4.366
10205.000			13.096			-4.365
10303.000			13.095			-4.365
10404.000			13.093			-4.364
10505.000			13.091			-4.364
10604.000			13.090			-4.363
10704.000			13.088			-4.363
10805.000			13.086			-4.362
10904.000			13.084			-4.361
11003.000			13.083			-4.361
11105.000			13.082			-4.361
11204.000			13.080			-4.360
11304.000			13.079			-4.360
11405.000			13.078			-4.359
11504.000			13.075			-4.358
11605.000			13.073			-4.358
11703.000			13.071			-4.357
11804.000			13.071			-4.357
11905.000			13.069			-4.356
12004.000			13.068			-4.356
12104.000			13.067			-4.356
12204.000			13.063			-4.354
12304.000			13.063			-4.354
12404.000			13.061			-4.354
12505.000			13.059			-4.353
12604.000			13.058			-4.353
12704.000			13.057			-4.352
12805.000			13.055			-4.352
12903.000			13.052			-4.351
13004.000			13.052			-4.351
13105.000			13.050			-4.350
13204.000			13.049			-4.350
13304.000			13.047			-4.349
13405.000			13.046			-4.349
13504.000			13.045			-4.348
13603.000			13.044			-4.348
13705.000			13.040			-4.347
13804.000			13.040			-4.347
13904.000			13.038			-4.346
14005.000			13.038			-4.346
14103.000			13.037			-4.346
14204.000			13.036			-4.345
14305.000			13.035			-4.345
14404.000			13.033			-4.344
14504.000			13.031			-4.344
14605.000			13.031			-4.344
14704.000			13.030			-4.343
14803.000			13.027			-4.342
14904.000			13.026			-4.342
15004.000			13.025			-4.342
15105.000			13.023			-4.341
15204.000			13.021			-4.340
15304.000			13.021			-4.340
15405.000			13.019			-4.340
15503.000			13.019			-4.340
15604.000			13.018			-4.339
15705.000			13.017			-4.339
15804.000			13.016			-4.339
15904.000			13.014			-4.338
16004.000			13.013			-4.338
16104.000			13.012			-4.337
16204.000			13.011			-4.337
16305.000			13.009			-4.336
16404.000			13.009			-4.336
16504.000			13.009			-4.336
16605.000			13.006			-4.335
16703.000			13.005			-4.335
16804.000			13.004			-4.335
16905.000			13.003			-4.334
17004.000			13.002			-4.334
17104.000			13.001			-4.334
17204.000			13.000			-4.333
17304.000			12.999			-4.333
17404.000			12.998			-4.333
17505.000			12.996			-4.332
17604.000			12.996			-4.332
17704.000			12.996			-4.332
17805.000			12.994			-4.331
17904.000			12.993			-4.331
18005.000			12.992			-4.331
18103.000			12.991			-4.330
18204.000			12.990			-4.330
18305.000			12.989			-4.330
18404.000			12.988			-4.329
18504.000			12.987			-4.329
18605.000			12.986			-4.329
18704.000			12.985			-4.328
18803.000			12.983			-4.328
18905.000			12.982			-4.327
19004.000			12.981			-4.327
19104.000			12.980			-4.327
19205.000			12.979			-4.326
19304.000			12.978			-4.326
19404.000			12.978			-4.326
19504.000			12.976			-4.325
19604.000			12.975			-4.325
19704.000			12.974			-4.325
19805.000			12.974			-4.325
19904.000			12.973			-4.324
20004.000			12.973			-4.324
20105.000			12.972			-4.324
20203.000			12.970			-4.323
20304.000			12.970			-4.323
20405.000			12.970			-4.323
20504.000			12.969			-4.323
20604.000			12.967			-4.322
20704.000			12.966			-4.322
20804.000			12.966			-4.322
20903.000			12.966			-4.322
21005.000			12.963			-4.321
21104.000			12.962			-4.321
21205.000			12.961			-4.320
21304.000			12.960			-4.320
21403.000			12.960			-4.320
21505.000			12.959			-4.320
21604.000			12.958			-4.319
21704.000			12.956			-4.319
21805.000			12.955			-4.318
21904.000			12.956			-4.319
22004.000			12.956			-4.319
22104.000			12.955			-4.318
22204.000			12.953			-4.318
22304.000			12.952			-4.317
22405.000			12.951			-4.317
22504.000			12.951			-4.317
22604.000			12.949			-4.316
22705.000			12.949			-4.316
22803.000			12.948			-4.316
22904.000			12.948			-4.316
23005.000			12.947			-4.316
23104.000			12.946			-4.315
23204.000			12.945			-4.315
23305.000			12.944			-4.315
23404.000			12.945			-4.315
23503.000			12.944			-4.315
23605.000			12.942			-4.314
23704.000			12.942			-4.314
23804.000			12.940			-4.313
23905.000			12.940			-4.313
24004.000			12.940			-4.313
24104.000			12.937			-4.312
24204.000			12.937			-4.312
24304.000			12.937			-4.312
24405.000			12.936			-4.312
24504.000			12.935			-4.312
24604.000			12.934			-4.311
24705.000			12.934			-4.311
24804.000			12.933			-4.311
24903.000			12.932			-4.311
25005.000			12.932			-4.311
25104.000			12.931			-4.310
25204.000			12.931			-4.310
25305.000			12.930			-4.310
25403.000			12.929			-4.310
25504.000			12.928			-4.309
25605.000			12.927			-4.309
25704.000			12.927			-4.309
25804.000			12.926			-4.309
25905.000			12.925			-4.308
26004.000			12.925			-4.308
26103.000			12.923			-4.308
26205.000			12.924			-4.308
26304.000			12.923			-4.308
26404.000			12.922			-4.307
26505.000			12.922			-4.307
26604.000			12.922			-4.307
26704.000			12.920			-4.307
26804.000			12.919			-4.306
26904.000			12.918			-4.306
27004.000			12.918			-4.306
27105.000			12.917			-4.306
27204.000			12.917			-4.306
27304.000			12.917			-4.306
27405.000			12.916			-4.305
27503.000			12.915			-4.305
27605.000			12.913			-4.304
27704.000			12.913			-4.304
27804.000			12.912			-4.304
27905.000			12.911			-4.304
28004.000			12.911			-4.304
28104.000			12.911			-4.304
28204.000			12.910			-4.303
28304.000			12.910			-4.303
28404.000			12.909			-4.303
28505.000			12.908			-4.303
28604.000			12.907			-4.302
28704.000			12.907			-4.302
28805.000			12.906			-4.302
28903.000			12.906			-4.302
29004.000			12.905			-4.302
29105.000			12.905			-4.302
29204.000			12.903			-4.301
29304.000			12.902			-4.301
29404.000			12.902			-4.301
29504.000			12.901			-4.300
29603.000			12.901			-4.300
29705.000			12.900			-4.300
29804.000			12.899			-4.300
29904.000			12.899			-4.300
30005.000			12.899			-4.300
30104.000			12.899			-4.300
30204.000			12.897			-4.299
30304.000			12.896			-4.299
30404.000			12.896			-4.299
30504.000			12.895			-4.298
30605.000			12.895			-4.298
30704.000			12.893			-4.298
30803.000			12.892			-4.297
30904.000			12.892			-4.297
31003.000			12.893			-4.298
31105.000			12.891			-4.297
31204.000			12.892			-4.297
31304.000			12.891			-4.297
31405.000			12.889			-4.296
31503.000			12.888			-4.296
31604.000			12.889			-4.296
31705.000			12.888			-4.296
31804.000			12.887			-4.296
31904.000			12.885			-4.295
32005.000			12.885			-4.295
32104.000			12.885			-4.295
32203.000			12.885			-4.295
32305.000			12.883			-4.294
32404.000			12.884			-4.295
32504.000			12.883			-4.294
32605.000			12.882			-4.294
32704.000			12.882			-4.294
32804.000			12.881			-4.294
32904.000			12.881			-4.294
33004.000			12.880			-4.293
33104.000			12.879			-4.293
33205.000			12.879			-4.293
33304.000			12.879			-4.293
33404.000			12.877			-4.292
33505.000			12.877			-4.292
33603.000			12.876			-4.292
33704.000			12.876			-4.292
33805.000			12.875			-4.292
33904.000			12.876			-4.292
34005.000			12.875			-4.292
34104.000			12.874			-4.291
34204.000			12.873			-4.291
34304.000			12.872			-4.291
34404.000			12.872			-4.291
34504.000			12.872			-4.291
34605.000			12.872			-4.291
34704.000			12.872			-4.291
34804.000			12.871			-4.290
34905.000			12.869			-4.290
35003.000			12.869			-4.290
35104.000			12.869			-4.290
35205.000			12.868			-4.289
35304.000			12.869			-4.290
35404.000			12.868			-4.289
35505.000			12.867			-4.289
35604.000			12.866			-4.289
35703.000			12.866			-4.289
35805.000			12.866			-4.289
35904.000			12.865			-4.288
36004.000			12.864			-4.288
36105.000			12.863			-4.288
36204.000			12.862			-4.287
36304.000			12.861			-4.287
36404.000			12.861			-4.287
36504.000			12.861			-4.287
36604.000			12.861			-4.287
36705.000			12.860			-4.287
36804.000			12.859			-4.286
36904.000			12.858			-4.286
37005.000			12.859			-4.286
37103.000			12.858			-4.286
37205.000			12.857			-4.286
37304.000			12.857			-4.286
37404.000			12.856			-4.285
37505.000			12.856			-4.285
37604.000			12.854			-4.285
37704.000			12.855			-4.285
37804.000			12.854			-4.285
37904.000			12.854			-4.285
38004.000			12.854			-4.285
38105.000			12.852			-4.284
38204.000			12.852			-4.284
38304.000			12.852			-4.284
38405.000			12.852			-4.284
38503.000			12.850			-4.283
38604.000			12.850			-4.283
38705.000			12.850			-4.283
38804.000			12.850			-4.283
38904.000			12.849			-4.283
39005.000			12.849			-4.283
39104.000			12.849			-4.283
39203.000			12.848			-4.283
39305.000			12.848			-4.283
39404.000			12.848			-4.283
39504.000			12.848			-4.283
39605.000			12.847			-4.282
39704.000			12.846			-4.282
39804.000			12.846			-4.282
39904.000			12.846			-4.282
40004.000			12.845			-4.282
40104.000			12.845			-4.282
40205.000			12.844			-4.281
40304.000			12.845			-4.282
40403.000			12.844			-4.281
40504.000			12.845			-4.282
40604.000			12.845			-4.282
40705.000			12.843			-4.281
40804.000			12.843			-4.281
40904.000			12.843			-4.281
41005.000			12.843			-4.281
41103.000			12.843			-4.281
41204.000			12.842			-4.281
41305.000			12.842			-4.281
41404.000			12.841			-4.280
41504.000			12.841			-4.280
41605.000			12.841			-4.280
41704.000			12.840			-4.280
41803.000			12.840			-4.280
41905.000			12.839			-4.280
42004.000			12.839			-4.280
42104.000			12.838			-4.279
42205.000			12.837			-4.279
42304.000			12.838			-4.279
42404.000			12.837			-4.279
42504.000			12.838			-4.279
42604.000			12.838			-4.279
42704.000			12.838			-4.279
42805.000			12.837			-4.279
42904.000			12.835			-4.278
43004.000			12.835			-4.278
43105.000			12.835			-4.278
43204.000			12.835			-4.278
43304.000			12.834			-4.278
43405.000			12.833			-4.278
43504.000			12.834			-4.278
43605.000			12.833			-4.278
43703.000			12.832			-4.277
43804.000			12.832			-4.277
43905.000			12.832			-4.277
44004.000			12.831			-4.277
44104.000			12.830			-4.277
44205.000			12.830			-4.277
44304.000			12.830			-4.277
44403.000			12.828			-4.276
44505.000			12.828			-4.276
44604.000			12.828			-4.276
44704.000			12.827			-4.276
44805.000			12.826			-4.275
44904.000			12.825			-4.275
45004.000			12.825			-4.275
45104.000			12.824			-4.275
45204.000			12.824			-4.275
45304.000			12.824			-4.275
45405.000			12.824			-4.275
45504.000			12.822			-4.274
45604.000			12.822			-4.274
45705.000			12.822			-4.274
45803.000			12.818			-4.273
45904.000			12.820			-4.273
46005.000			12.820			-4.273
46104.000			12.819			-4.273
46204.000			12.819			-4.273
46305.000			12.819			-4.273
46404.000			12.819			-4.273
46503.000			12.817			-4.272
46605.000			12.817			-4.272
46704.000			12.817			-4.272
46805.000			12.818			-4.273
46904.000			12.817			-4.272
47004.000			12.817			-4.272
47105.000			12.817			-4.272
47203.000			12.817			-4.272
47304.000			12.816			-4.272
47405.000			12.816			-4.272
47504.000			12.816			-4.272
47604.000			12.815			-4.272
47705.000			12.814			-4.271
47804.000			12.814			-4.271
47903.000			12.815			-4.272
48005.000			12.815			-4.272
48104.000			12.815			-4.272
48204.000			12.813			-4.271
48305.000			12.812			-4.271
48404.000			12.812			-4.271
48504.000			12.813			-4.271
48604.000			12.812			-4.271
48704.000			12.811			-4.270
48804.000			12.810			-4.270
48905.000			12.811			-4.270
49004.000			12.811			-4.270
49103.000			12.810			-4.270
49205.000			12.810			-4.270
49304.000			12.810			-4.270
49404.000			12.810			-4.270
49505.000			12.809			-4.270
49604.000			12.809			-4.270
49704.000			12.808			-4.269
49804.000			12.807			-4.269
49904.000			12.807			-4.269
50003.000			12.806			-4.269
50104.000			12.806			-4.269
50204.000			12.805			-4.268
50305.000			12.805			-4.268
50404.000			12.805			-4.268
50503.000			12.805			-4.268
50605.000			12.805			-4.268
50704.000			12.804			-4.268
50804.000			12.803			-4.268
50905.000			12.802			-4.267
51004.000			12.802			-4.267
51104.000			12.801			-4.267
51204.000			12.800			-4.267
51304.000			12.799			-4.266
51404.000			12.799			-4.266
51505.000			12.799			-4.266
51604.000			12.799			-4.266
51704.000			12.797			-4.266
51805.000			12.796			-4.265
51903.000			12.796			-4.265
52004.000			12.795			-4.265
52105.000			12.795			-4.265
52204.000			12.794			-4.265
52304.000			12.794			-4.265
52404.000			12.793			-4.264
52504.000			12.792			-4.264
52603.000			12.792			-4.264
52705.000			12.792			-4.264
52804.000			12.791			-4.264
52904.000			12.791			-4.264
53005.000			12.791			-4.264
53103.000			12.789			-4.263
53205.000			12.788			-4.263
53304.000			12.789			-4.263
53404.000			12.790			-4.263
53505.000			12.789			-4.263
53604.000			12.788			-4.263
53704.000			12.787			-4.262
53804.000			12.787			-4.262
53904.000			12.786			-4.262
54003.000			12.786			-4.262
54105.000			12.786			-4.262
54204.000			12.785			-4.262
54304.000			12.785			-4.262
54405.000			12.784			-4.261
54503.000			12.784			-4.261
54604.000			12.784			-4.261
54705.000			12.784			-4.261
54804.000			12.784			-4.261
54904.000			12.783			-4.261
55005.000			12.784			-4.261
55104.000			12.784			-4.261
55203.000			12.783			-4.261
55305.000			12.782			-4.261
55404.000			12.782			-4.261
55504.000			12.781			-4.260
55605.000			12.781			-4.260
55704.000			12.782			-4.261
55804.000			12.781			-4.260
55904.000			12.780			-4.260
56004.000			12.781			-4.260
56104.000			12.781			-4.260
56205.000			12.781			-4.260
56304.000			12.781			-4.260
56405.000			12.781			-4.260
56504.000			12.780			-4.260
56603.000			12.780			-4.260
56705.000			12.779			-4.260
56804.000			12.779			-4.260
56904.000			12.779			-4.260
57005.000			12.780			-4.260
57104.000			12.780			-4.260
57204.000			12.780			-4.260
57304.000			12.778			-4.259
57404.000			12.777			-4.259
57504.000			12.778			-4.259
57605.000			12.777			-4.259
57704.000			12.776			-4.259
57804.000			12.776			-4.259
57905.000			12.776			-4.259
58003.000			12.775			-4.258
58104.000			12.775			-4.258
58205.000			12.776			-4.259
58304.000			12.775			-4.258
58404.000			12.775			-4.258
58505.000			12.775			-4.258
58604.000			12.775			-4.258
58703.000			12.774			-4.258
58805.000			12.774			-4.258
58904.000			12.774			-4.258
59004.000			12.773			-4.258
59105.000			12.773			-4.258
59204.000			12.773			-4.258
59304.000			12.772			-4.257
59404.000			12.773			-4.258
59504.000			12.772			-4.257
59605.000			12.772			-4.257
59704.000			12.770			-4.257
59804.000			12.770			-4.257
59905.000			12.770			-4.257
60004.000			12.770			-4.257
60103.000			12.770			-4.257
60205.000			12.769			-4.256
60304.000			12.769			-4.256
60404.000			12.769			-4.256
60505.000			12.769			-4.256
60604.000			12.768			-4.256
60704.000			12.767			-4.256
60804.000			12.767			-4.256
60904.000			12.766			-4.255
61004.000			12.766			-4.255
61105.000			12.765			-4.255
61204.000			12.765			-4.255
61304.000			12.764			-4.255
61405.000			12.763			-4.254
61503.000			12.763			-4.254
61604.000			12.763			-4.254
61705.000			12.763			-4.254
61804.000			12.762			-4.254
61904.000			12.762			-4.254
62005.000			12.761			-4.254
62104.000			12.761			-4.254
62203.000			12.761			-4.254
62305.000			12.759			-4.253
62404.000			12.759			-4.253
62504.000			12.759			-4.253
62605.000			12.759			-4.253
62704.000			12.758			-4.253
62805.000			12.758			-4.253
62903.000			12.757			-4.252
63004.000			12.756			-4.252
63105.000			12.756			-4.252
63204.000			12.755			-4.252
63304.000			12.755			-4.252
63404.000			12.755			-4.252
63504.000			12.754			-4.251
63603.000			12.754			-4.251
63705.000			12.754			-4.251
63804.000			12.753			-4.251
63904.000			12.753			-4.251
64005.000			12.751			-4.250
64103.000			12.752			-4.251
64204.000			12.752			-4.251
64305.000			12.753			-4.251
64404.000			12.752			-4.251
64504.000			12.751			-4.250
64605.000			12.751			-4.250
64704.000			12.751			-4.250
64803.000			12.749			-4.250
64905.000			12.749			-4.250
65004.000			12.749			-4.250
65104.000			12.749			-4.250
65205.000			12.748			-4.249
65304.000			12.748			-4.249
65404.000			12.748			-4.249
65504.000			12.747			-4.249
65604.000			12.747			-4.249
65704.000			12.748			-4.249
65805.000			12.747			-4.249
65904.000			12.747			-4.249
66005.000			12.747			-4.249
66104.000			12.746			-4.249
66203.000			12.745			-4.248
66305.000			12.744			-4.248
66404.000			12.744			-4.248
66504.000			12.743			-4.248
66605.000			12.743			-4.248
66704.000			12.744			-4.248
66804.000			12.744			-4.248
66904.000			12.744			-4.248
67004.000			12.743			-4.248
67103.000			12.743			-4.248
67205.000			12.742			-4.247
67304.000			12.741			-4.247
67404.000			12.742			-4.247
67505.000			12.741			-4.247
67604.000			12.742			-4.247
67704.000			12.741			-4.247
67804.000			12.741			-4.247
67904.000			12.740			-4.247
68004.000			12.740			-4.247
68105.000			12.739			-4.246
68204.000			12.738			-4.246
68304.000			12.739			-4.246
68405.000			12.739			-4.246
68503.000			12.739			-4.246
68604.000			12.738			-4.246
68705.000			12.737			-4.246
68804.000			12.738			-4.246
68904.000			12.737			-4.246
69005.000			12.737			-4.246
69104.000			12.737			-4.246
69203.000			12.735			-4.245
69304.000			12.735			-4.245
69404.000			12.736			-4.245
69505.000			12.736			-4.245
69604.000			12.736			-4.245
69704.000			12.736			-4.245
69805.000			12.734			-4.245
69903.000			12.735			-4.245
70004.000			12.734			-4.245
70105.000			12.733			-4.244
70204.000			12.733			-4.244
70304.000			12.733			-4.244
70405.000			12.733			-4.244
70504.000			12.732			-4.244
70603.000			12.732			-4.244
70705.000			12.733			-4.244
70804.000			12.733			-4.244
70904.000			12.732			-4.244
71005.000			12.732			-4.244
71104.000			12.730			-4.243
71204.000			12.731			-4.244
71304.000			12.731			-4.244
71404.000			12.730			-4.243
71504.000			12.730			-4.243
71605.000			12.730			-4.243
71704.000			12.729			-4.243
71803.000			12.729			-4.243
71905.000			12.728			-4.243
72004.000			12.729			-4.243
72104.000			12.729			-4.243
72205.000			12.728			-4.243
72304.000			12.728			-4.243
72405.000			12.727			-4.242
72504.000			12.727			-4.242
72604.000			12.727			-4.242
72704.000			12.726			-4.242
72804.000			12.726			-4.242
72904.000			12.725			-4.242
73005.000			12.726			-4.242
73104.000			12.725			-4.242
73203.000			12.724			-4.241
73305.000			12.725			-4.242
73404.000			12.724			-4.241
73504.000			12.724			-4.241
73605.000			12.724			-4.241
73704.000			12.722			-4.241
73804.000			12.722			-4.241
73904.000			12.724			-4.241
74004.000			12.724			-4.241
74103.000			12.723			-4.241
74205.000			12.722			-4.241
74304.000			12.722			-4.241
74404.000			12.723			-4.241
74505.000			12.721			-4.240
74603.000			12.722			-4.241
74704.000			12.723			-4.241
74805.000			12.721			-4.240
74904.000			12.721			-4.240
75004.000			12.721			-4.240
75105.000			12.721			-4.240
75204.000			12.722			-4.241
75303.000			12.721			-4.240
75405.000			12.720			-4.240
75504.000			12.721			-4.240
75605.000			12.721			-4.240
75704.000			12.719			-4.240
75804.000			12.719			-4.240
75905.000			12.719			-4.240
76003.000			12.719			-4.240
76104.000			12.720			-4.240
76205.000			12.720			-4.240
76304.000			12.719			-4.240
76404.000			12.719			-4.240
76505.000			12.719			-4.240
76604.000			12.719			-4.240
76703.000			12.718			-4.239
76805.000			12.718			-4.239
76904.000			12.718			-4.239
77004.000			12.717			-4.239
77105.000			12.718			-4.239
77204.000			12.717			-4.239
77304.000			12.716			-4.239
77404.000			12.715			-4.238
77504.000			12.716			-4.239
77604.000			12.716			-4.239
77705.000			12.716			-4.239
77804.000			12.715			-4.238
77904.000			12.715			-4.238
78005.000			12.714			-4.238
78103.000			12.714			-4.238
78204.000			12.714			-4.238
78305.000			12.713			-4.238
78404.000			12.713			-4.238
78504.000			12.713			-4.238
78605.000			12.713			-4.238
78704.000			12.713			-4.238
78803.000			12.712			-4.237
78904.000			12.712			-4.237
79004.000			12.712			-4.237
79105.000			12.711			-4.237
79204.000			12.711			-4.237
79304.000			12.711			-4.237
79405.000			12.712			-4.237
79503.000			12.711			-4.237
79604.000			12.710			-4.237
79705.000			12.710			-4.237
79804.000			12.711			-4.237
79904.000			12.711			-4.237
80005.000			12.711			-4.237
80104.000			12.708			-4.236
80203.000			12.708			-4.236
80305.000			12.709			-4.236
80404.000			12.709			-4.236
80504.000			12.708			-4.236
80605.000			12.708			-4.236
80703.000			12.707			-4.236
80804.000			12.708			-4.236
80905.000			12.706			-4.235
81004.000			12.706			-4.235
81104.000			12.707			-4.236
81205.000			12.706			-4.235
81304.000			12.706			-4.235
81403.000			12.707			-4.236
81505.000			12.706			-4.235
81604.000			12.704			-4.235
81704.000			12.705			-4.235
81805.000			12.706			-4.235
81904.000			12.704			-4.235
82005.000			12.704			-4.235
82103.000			12.704			-4.235
82204.000			12.704			-4.235
82305.000			12.704			-4.235
82404.000			12.703			-4.234
82504.000			12.703			-4.234
82605.000			12.703			-4.234
82704.000			12.703			-4.234
82803.000			12.703			-4.234
82905.000			12.703			-4.234
83004.000			12.703			-4.234
83104.000			12.703			-4.234
83205.000			12.703			-4.234
83304.000			12.702			-4.234
83404.000			12.703			-4.234
83504.000			12.702			-4.234
83604.000			12.702			-4.234
83704.000			12.702			-4.234
83805.000			12.702			-4.234
83904.000			12.702			-4.234
84004.000			12.701			-4.234
84105.000			12.700			-4.233
84203.000			12.701			-4.234
84304.000			12.701			-4.234
84405.000			12.700			-4.233
84504.000			12.699			-4.233
84604.000			12.700			-4.233
84704.000			12.701			-4.234
84804.000			12.701			-4.234
84903.000			12.700			-4.233
85005.000			12.699			-4.233
85104.000			12.698			-4.233
85205.000			12.698			-4.233
85304.000			12.697			-4.232
85404.000			12.697			-4.232
85505.000			12.698			-4.233
85603.000			12.698			-4.233
85704.000			12.697			-4.232
85805.000			12.697			-4.232
85904.000			12.697			-4.232
86004.000			12.697			-4.232
86105.000			12.698			-4.233
86204.000			12.698			-4.233
86303.000			12.698			-4.233
86405.000			12.698			-4.233
86504.000			12.696			-4.232
86604.000			12.696			-4.232
86705.000			12.697			-4.232
86804.000			12.697			-4.232
86904.000			12.696			-4.232
87004.000			12.696			-4.232
87104.000			12.697			-4.232
87203.000			12.697			-4.232
87305.000			12.696			-4.232
87404.000			12.696			-4.232
87504.000			12.696			-4.232
87605.000			12.695			-4.232
87704.000			12.694			-4.231
87804.000			12.694			-4.231
87904.000			12.695			-4.232
88004.000			12.694			-4.231
88104.000			12.692			-4.231
88205.000			12.693			-4.231
88304.000			12.692			-4.231
88405.000			12.692			-4.231
88504.000			12.692			-4.231
88603.000			12.692			-4.231
88705.000			12.692			-4.231
88804.000			12.691			-4.230
88904.000			12.691			-4.230
89005.000			12.691			-4.230
89104.000			12.690			-4.230
89204.000			12.690			-4.230
89304.000			12.690			-4.230
89404.000			12.689			-4.230
89504.000			12.689			-4.230
89605.000			12.689			-4.230
89704.000			12.688			-4.229
89804.000			12.688			-4.229
89905.000			12.688			-4.229
90004.000			12.687			-4.229
90104.000			12.687			-4.229
90204.000			12.688			-4.229
90304.000			12.686			-4.229
90404.000			12.685			-4.228
90505.000			12.685			-4.228
90604.000			12.685			-4.228
90704.000			12.684			-4.228
90805.000			12.684			-4.228
90903.000			12.683			-4.228
91004.000			12.683			-4.228
91105.000			12.683			-4.228
91204.000			12.683			-4.228
91304.000			12.683			-4.228
91405.000			12.683			-4.228
91504.000			12.682			-4.227
91603.000			12.681			-4.227
91704.000			12.682			-4.227
91804.000			12.681			-4.227
91905.000			12.681			-4.227
92004.000			12.681			-4.227
92104.000			12.680			-4.227
92205.000			12.680			-4.227
92303.000			12.681			-4.227
92404.000			12.679			-4.226
92505.000			12.678			-4.226
92604.000			12.677			-4.226
92704.000			12.677			-4.226
92805.000			12.677			-4.226
92904.000			12.677			-4.226
93003.000			12.677			-4.226
93105.000			12.676			-4.225
93204.000			12.677			-4.226
93304.000			12.677			-4.226
93405.000			12.677			-4.226
93504.000			12.676			-4.225
93604.000			12.676			-4.225
93704.000			12.676			-4.225
93804.000			12.675			-4.225
93904.000			12.675			-4.225
94005.000			12.675			-4.225
94104.000			12.675			-4.225
94204.000			12.674			-4.225
94305.000			12.673			-4.224
94403.000			12.673			-4.224
94504.000			12.672			-4.224
94605.000			12.673			-4.224
94704.000			12.674			-4.225
94805.000			12.673			-4.224
94904.000			12.672			-4.224
95004.000			12.672			-4.224
95104.000			12.672			-4.224
95204.000			12.673			-4.224
95304.000			12.672			-4.224
95405.000			12.672			-4.224
95504.000			12.671			-4.224
95604.000			12.671			-4.224
95705.000			12.671			-4.224
95803.000			12.672			-4.224
95904.000			12.671			-4.224
96005.000			12.671			-4.224
96104.000			12.671			-4.224
96204.000			12.670			-4.223
96305.000			12.671			-4.224
96404.000			12.670			-4.223
96503.000			12.671			-4.224
96605.000			12.672			-4.224
96704.000			12.671			-4.224
96804.000			12.671			-4.224
96905.000			12.671			-4.224
97004.000			12.671			-4.224
97104.000			12.670			-4.223
97204.000			12.671			-4.224
97304.000			12.671			-4.224
97403.000			12.670			-4.223
97505.000			12.671			-4.224
97604.000			12.671			-4.224
97704.000			12.671			-4.224
97805.000			12.670			-4.223
97904.000			12.670			-4.223
98005.000			12.670			-4.223
98103.000			12.670			-4.223
98204.000			12.670			-4.223
98305.000			12.670			-4.223
98404.000			12.669			-4.223
98504.000			12.669			-4.223
98605.000			12.669			-4.223
98704.000			12.670			-4.223
98803.000			12.669			-4.223
98905.000			12.669			-4.223
99004.000			12.670			-4.223
99104.000			12.669			-4.223
99205.000			12.669			-4.223
99304.000			12.669			-4.223
99404.000			12.670			-4.223
99504.000			12.670			-4.223
99604.000			12.669			-4.223
99703.000			12.669			-4.223
99805.000			12.668			-4.223
99904.000			12.668			-4.223
100004.000			12.667			-4.222
100105.000			12.666			-4.222
100204.000			12.666			-4.222
100304.000			12.667			-4.222
100404.000			12.668			-4.223
100504.000			12.668			-4.223
100604.000			12.666			-4.222
100705.000			12.666			-4.222
100804.000			12.667			-4.222
100904.000			12.667			-4.222
101005.000			12.667			-4.222
101103.000			12.666			-4.222
101205.000			12.665			-4.222
101304.000			12.665			-4.222
101404.000			12.665			-4.222
101505.000			12.665			-4.222
101604.000			12.664			-4.221
101704.000			12.665			-4.222
101804.000			12.665			-4.222
101904.000			12.665			-4.222
102004.000			12.664			-4.221
102105.000			12.663			-4.221
102204.000			12.663			-4.221
102304.000			12.663			-4.221
102405.000			12.663			-4.221
102503.000			12.662			-4.221
102604.000			12.662			-4.221
102705.000			12.662			-4.221
102804.000			12.662			-4.221
102904.000			12.662			-4.221
103005.000			12.660			-4.220
103104.000			12.659			-4.220
103203.000			12.660			-4.220
103305.000			12.659			-4.220
103404.000			12.660			-4.220
103504.000			12.660			-4.220
103605.000			12.659			-4.220
103704.000			12.659			-4.220
103804.000			12.659			-4.220
103904.000			12.659			-4.220
104004.000			12.660			-4.220
104104.000			12.659			-4.220
104205.000			12.658			-4.219
104304.000			12.657			-4.219
104405.000			12.658			-4.219
104504.000			12.659			-4.220
104603.000			12.658			-4.219
104705.000			12.657			-4.219
104804.000			12.658			-4.219
104904.000			12.656			-4.219
105005.000			12.657			-4.219
105104.000			12.657			-4.219
105204.000			12.657			-4.219
105305.000			12.656			-4.219
105404.000			12.656			-4.219
105503.000			12.655			-4.218
105605.000			12.656			-4.219
105704.000			12.655			-4.218
105804.000			12.655			-4.218
105905.000			12.655			-4.218
106004.000			12.654			-4.218
106104.000			12.653			-4.218
106204.000			12.654			-4.218
106304.000			12.654			-4.218
106404.000			12.653			-4.218
106505.000			12.654			-4.218
106604.000			12.653			-4.218
106704.000			12.652			-4.217
106805.000			12.652			-4.217
106903.000			12.652			-4.217
107004.000			12.652			-4.217
107105.000			12.651			-4.217
107204.000			12.651			-4.217
107304.000			12.652			-4.217
107405.000			12.651			-4.217
107504.000			12.649			-4.216
107603.000			12.649			-4.216
107704.000			12.650			-4.217
107804.000			12.648			-4.216
107905.000			12.649			-4.216
108004.000			12.648			-4.216
108104.000			12.649			-4.216
108205.000			12.648			-4.216
108303.000			12.647			-4.216
108404.000			12.647			-4.216
108505.000			12.647			-4.216
108604.000			12.647			-4.216
108704.000			12.648			-4.216
108805.000			12.647			-4.216
108904.000			12.646			-4.215
109003.000			12.646			-4.215
109105.000			12.646			-4.215
109203.000			12.647			-4.216
109304.000			12.646			-4.215
109405.000			12.646			-4.215
109504.000			12.645			-4.215
109604.000			12.644			-4.215
109705.000			12.645			-4.215
109804.000			12.646			-4.215
109903.000			12.646			-4.215
110005.000			12.646			-4.215
110104.000			12.646			-4.215
110204.000			12.645			-4.215
110305.000			12.645			-4.215
110404.000			12.645			-4.215
110504.000			12.645			-4.215
110604.000			12.646			-4.215
110704.000			12.645			-4.215
110805.000			12.646			-4.215
110904.000			12.645			-4.215
111004.000			12.644			-4.215
111105.000			12.644			-4.215
111204.000			12.644			-4.215
111303.000			12.645			-4.215
111405.000			12.644			-4.215
111504.000			12.644			-4.215
111604.000			12.644			-4.215
111705.000			12.644			-4.215
111804.000			12.644			-4.215
111904.000			12.644			-4.215
112004.000			12.644			-4.215
112104.000			12.643			-4.214
112204.000			12.643			-4.214
112305.000			12.643			-4.214
112404.000			12.642			-4.214
112504.000			12.642			-4.214
112605.000			12.642			-4.214
112703.000			12.642			-4.214
112804.000			12.641			-4.214
112905.000			12.641			-4.214
113004.000			12.641			-4.214
113104.000			12.640			-4.213
113205.000			12.640			-4.213
113304.000			12.640			-4.213
113403.000			12.640			-4.213
113505.000			12.641			-4.214
113604.000			12.641			-4.214
113704.000			12.640			-4.213
113805.000			12.639			-4.213
113904.000			12.640			-4.213
114005.000			12.640			-4.213
114103.000			12.640			-4.213
114204.000			12.640			-4.213
114305.000			12.639			-4.213
114404.000			12.638			-4.213
114504.000			12.638			-4.213
114605.000			12.638			-4.213
114704.000			12.638			-4.213
114803.000			12.639			-4.213
114905.000			12.638			-4.213
115004.000			12.637			-4.212
115104.000			12.637			-4.212
115205.000			12.637			-4.212
115304.000			12.637			-4.212
115404.000			12.637			-4.212
115504.000			12.638			-4.213
115604.000			12.637			-4.212
115703.000			12.637			-4.212
115805.000			12.637			-4.212
115904.000			12.636			-4.212
116004.000			12.636			-4.212
116105.000			12.636			-4.212
116204.000			12.636			-4.212
116304.000			12.636			-4.212
116404.000			12.635			-4.212
116504.000			12.635			-4.212
116604.000			12.634			-4.211
116705.000			12.635			-4.212
116804.000			12.634			-4.211
116904.000			12.633			-4.211
117005.000			12.633			-4.211
117103.000			12.634			-4.211
117205.000			12.634			-4.211
117304.000			12.633			-4.211
117404.000			12.632			-4.211
117505.000			12.631			-4.210
117604.000			12.632			-4.211
117704.000			12.632			-4.211
117804.000			12.632			-4.211
117904.000			12.631			-4.210
118004.000			12.632			-4.211
118105.000			12.630			-4.210
118204.000			12.629			-4.210
118304.000			12.630			-4.210
118405.000			12.630			-4.210
118503.000			12.629			-4.210
118604.000			12.628			-4.209
118705.000			12.628			-4.209
118804.000			12.628			-4.209
118904.000			12.628			-4.209
119005.000			12.627			-4.209
119104.000			12.626			-4.209
119203.000			12.626			-4.209
119305.000			12.625			-4.208
119404.000			12.625			-4.208
119504.000			12.626			-4.209
119605.000			12.624			-4.208
119704.000			12.625			-4.208
119804.000			12.625			-4.208
119904.000			12.625			-4.208
120004.000			12.625			-4.208
120104.000			12.625			-4.208
120205.000			12.625			-4.208
120304.000			12.623			-4.208
120405.000			12.624			-4.208
120504.000			12.624			-4.208
120603.000			12.622			-4.207
120705.000			12.622			-4.207
120804.000			12.623			-4.208
120904.000			12.622			-4.207
121005.000			12.623			-4.208
121104.000			12.623			-4.208
121204.000			12.622			-4.207
121304.000			12.621			-4.207
121404.000			12.621			-4.207
121504.000			12.621			-4.207
121605.000			12.622			-4.207
121704.000			12.620			-4.207
121804.000			12.620			-4.207
121905.000			12.620			-4.207
122003.000			12.620			-4.207
122104.000			12.619			-4.206
122205.000			12.620			-4.207
122304.000			12.620			-4.207
122404.000			12.620			-4.207
122505.000			12.618			-4.206
122604.000			12.619			-4.206
122703.000			12.618			-4.206
122805.000			12.617			-4.206
122904.000			12.618			-4.206
123004.000			12.617			-4.206
123105.000			12.617			-4.206
123204.000			12.617			-4.206
123304.000			12.617			-4.206
123404.000			12.617			-4.206
123504.000			12.616			-4.205
123605.000			12.617			-4.206
123704.000			12.618			-4.206
123804.000			12.616			-4.205
123905.000			12.616			-4.205
124004.000			12.616			-4.205
124104.000			12.616			-4.205
124205.000			12.616			-4.205
124303.000			12.615			-4.205
124404.000			12.615			-4.205
124505.000			12.615			-4.205
124604.000			12.615			-4.205
124704.000			12.615			-4.205
124805.000			12.615			-4.205
124904.000			12.614			-4.205
125003.000			12.615			-4.205
125105.000			12.614			-4.205
125204.000			12.613			-4.204
125304.000			12.613			-4.204
125405.000			12.614			-4.205
125504.000			12.614			-4.205
125604.000			12.615			-4.205
125704.000			12.614			-4.205
125804.000			12.613			-4.204
125904.000			12.613			-4.204
126005.000			12.612			-4.204
126104.000			12.613			-4.204
126204.000			12.613			-4.204
126305.000			12.612			-4.204
126403.000			12.612			-4.204
126504.000			12.612			-4.204
126605.000			12.612			-4.204
126704.000			12.612			-4.204
126805.000			12.612			-4.204
126904.000			12.612			-4.204
127004.000			12.611			-4.204
127104.000			12.610			-4.203
127204.000			12.610			-4.203
127304.000			12.610			-4.203
127405.000			12.610			-4.203
127504.000			12.611			-4.204
127604.000			12.611			-4.204
127705.000			12.610			-4.203
127803.000			12.610			-4.203
127904.000			12.609			-4.203
128005.000			12.609			-4.203
128104.000			12.609			-4.203
128204.000			12.610			-4.203
128305.000			12.610			-4.203
128404.000			12.609			-4.203
128503.000			12.609			-4.203
128605.000			12.609			-4.203
128704.000			12.609			-4.203
128804.000			12.609			-4.203
128905.000			12.608			-4.203
129004.000			12.607			-4.202
129104.000			12.608			-4.203
129204.000			12.607			-4.202
129304.000			12.607			-4.202
129403.000			12.607			-4.202
129505.000			12.607			-4.202
129604.000			12.606			-4.202
129704.000			12.607			-4.202
129805.000			12.606			-4.202
129904.000			12.607			-4.202
130005.000			12.608			-4.203
130103.000			12.607			-4.202
130204.000			12.605			-4.202
130305.000			12.606			-4.202
130404.000			12.606			-4.202
130504.000			12.606			-4.202
130605.000			12.606			-4.202
130704.000			12.605			-4.202
130803.000			12.605			-4.202
130905.000			12.605			-4.202
131004.000			12.604			-4.201
131104.000			12.605			-4.202
131205.000			12.604			-4.201
131304.000			12.604			-4.201
131404.000			12.604			-4.201
131504.000			12.603			-4.201
131604.000			12.603			-4.201
131704.000			12.604			-4.201
131805.000			12.604			-4.201
131904.000			12.603			-4.201
132004.000			12.604			-4.201
132105.000			12.603			-4.201
132203.000			12.602			-4.201
132304.000			12.603			-4.201
132404.000			12.603			-4.201
132504.000			12.602			-4.201
132604.000			12.603			-4.201
132705.000			12.602			-4.201
132804.000			12.602			-4.201
132904.000			12.602			-4.201
133005.000			12.602			-4.201
133103.000			12.602			-4.201
133205.000			12.602			-4.201
133304.000			12.601			-4.200
133404.000			12.602			-4.201
133505.000			12.601			-4.200
133604.000			12.601			-4.200
133704.000			12.601			-4.200
133804.000			12.601			-4.200
133904.000			12.601			-4.200
134003.000			12.601			-4.200
134105.000			12.601			-4.200
134204.000			12.600			-4.200
134304.000			12.599			-4.200
134405.000			12.599			-4.200
134504.000			12.598			-4.199
134604.000			12.599			-4.200
134704.000			12.599			-4.200
134804.000			12.599			-4.200
134904.000			12.599			-4.200
135005.000			12.598			-4.199
135104.000			12.597			-4.199
135204.000			12.597			-4.199
135305.000			12.598			-4.199
135404.000			12.598			-4.199
135504.000			12.598			-4.199
135604.000			12.597			-4.199
135704.000			12.598			-4.199
135804.000			12.597			-4.199
135905.000			12.597			-4.199
136004.000			12.597			-4.199
136104.000			12.597			-4.199
136205.000			12.598			-4.199
136304.000			12.597			-4.199
136405.000			12.596			-4.199
136503.000			12.596			-4.199
136604.000			12.597			-4.199
136705.000			12.595			-4.198
136804.000			12.594			-4.198
136904.000			12.595			-4.198
137005.000			12.596			-4.199
137104.000			12.596			-4.199
137204.000			12.596			-4.199
137305.000			12.596			-4.199
137403.000			12.596			-4.199
137504.000			12.595			-4.198
137604.000			12.594			-4.198
137704.000			12.595			-4.198
137804.000			12.595			-4.198
137905.000			12.594			-4.198
138004.000			12.595			-4.198
138104.000			12.594			-4.198
138205.000			12.593			-4.198
138303.000			12.594			-4.198
138404.000			12.593			-4.198
138504.000			12.593			-4.198
138604.000			12.593			-4.198
138704.000			12.593			-4.198
138805.000			12.593			-4.198
138904.000			12.592			-4.197
139004.000			12.592			-4.197
139105.000			12.593			-4.198
139204.000			12.594			-4.198
139304.000			12.591			-4.197
139404.000			12.591			-4.197
139504.000			12.591			-4.197
139605.000			12.592			-4.197
139704.000			12.592			-4.197
139804.000			12.592			-4.197
139905.000			12.591			-4.197
140004.000			12.592			-4.197
140104.000			12.591			-4.197
140205.000			12.590			-4.197
140303.000			12.590			-4.197
140404.000			12.591			-4.197
140505.000			12.591			-4.197
140604.000			12.590			-4.197
140704.000			12.590			-4.197
140805.000			12.590			-4.197
140904.000			12.590			-4.197
141004.000			12.590			-4.197
141105.000			12.591			-4.197
141203.000			12.590			-4.197
141304.000			12.589			-4.196
141405.000			12.589			-4.196
141504.000			12.589			-4.196
141604.000			12.589			-4.196
141705.000			12.589			-4.196
141804.000			12.589			-4.196
141904.000			12.589			-4.196
142005.000			12.589			-4.196
142103.000			12.588			-4.196
142204.000			12.588			-4.196
142305.000			12.588			-4.196
142404.000			12.587			-4.196
142504.000			12.587			-4.196
142605.000			12.588			-4.196
142704.000			12.588			-4.196
142805.000			12.587			-4.196
142904.000			12.587			-4.196
143003.000			12.587			-4.196
143105.000			12.587			-4.196
143204.000			12.587			-4.196
143304.000			12.587			-4.196
143405.000			12.586			-4.195
143504.000			12.586			-4.195
143604.000			12.586			-4.195
143705.000			12.587			-4.196
143804.000			12.585			-4.195
143903.000			12.585			-4.195
144005.000			12.585			-4.195
144104.000			12.586			-4.195
144204.000			12.585			-4.195
144305.000			12.585			-4.195
144404.000			12.584			-4.195
144504.000			12.584			-4.195
144604.000			12.584			-4.195
144704.000			12.584			-4.195
144803.000			12.584			-4.195
144905.000			12.584			-4.195
145004.000			12.584			-4.195
145104.000			12.584			-4.195
145205.000			12.583			-4.194
145304.000			12.584			-4.195
145404.000			12.584			-4.195
145504.000			12.584			-4.195
145604.000			12.584			-4.195
145703.000			12.583			-4.194
145805.000			12.583			-4.194
145904.000			12.584			-4.195
146005.000			12.583			-4.194
146104.000			12.584			-4.195
146204.000			12.583			-4.194
146305.000			12.583			-4.194
146403.000			12.583			-4.194
146504.000			12.582			-4.194
146604.000			12.581			-4.194
146704.000			12.581			-4.194
146804.000			12.582			-4.194
146905.000			12.582			-4.194
147004.000			12.582			-4.194
147104.000			12.582			-4.194
147205.000			12.582			-4.194
147303.000			12.581			-4.194
147404.000			12.582			-4.194
147504.000			12.582			-4.194
147604.000			12.581			-4.194
147704.000			12.581			-4.194
147805.000			12.581			-4.194
147904.000			12.580			-4.193
148004.000			12.580			-4.193
148105.000			12.580			-4.193
148203.000			12.580			-4.193
148304.000			12.580			-4.193
148404.000			12.579			-4.193
148504.000			12.581			-4.194
148604.000			12.580			-4.193
148705.000			12.579			-4.193
148804.000			12.580			-4.193
148904.000			12.581			-4.194
149005.000			12.580			-4.193
149103.000			12.579			-4.193
149205.000			12.579			-4.193
149303.000			12.580			-4.193
149404.000			12.580			-4.193
149505.000			12.578			-4.193
149604.000			12.578			-4.193
149704.000			12.578			-4.193
149805.000			12.577			-4.192
149904.000			12.578			-4.193
150004.000			12.578			-4.193
150105.000			12.578			-4.193
150203.000			12.578			-4.193
150304.000			12.578			-4.193
150405.000			12.578			-4.193
150504.000			12.578			-4.193
150604.000			12.578			-4.193
150705.000			12.577			-4.192
150804.000			12.577			-4.192
150904.000			12.578			-4.193
151005.000			12.576			-4.192
151103.000			12.576			-4.192
151204.000			12.576			-4.192
151305.000			12.575			-4.192
151404.000			12.575			-4.192
151504.000			12.576			-4.192
151605.000			12.575			-4.192
151704.000			12.574			-4.191
151804.000			12.574			-4.191
151905.000			12.575			-4.192
152003.000			12.576			-4.192
152104.000			12.574			-4.191
152205.000			12.574			-4.191
152304.000			12.574			-4.191
152405.000			12.574			-4.191
152504.000			12.574			-4.191
152604.000			12.574			-4.191
152705.000			12.573			-4.191
152804.000			12.573			-4.191
152903.000			12.573			-4.191
153005.000			12.573			-4.191
153104.000			12.573			-4.191
153204.000			12.573			-4.191
153305.000			12.572			-4.191
153404.000			12.572			-4.191
153504.000			12.571			-4.190
153604.000			12.572			-4.191
153704.000			12.571			-4.190
153803.000			12.571			-4.190
153905.000			12.571			-4.190
154004.000			12.571			-4.190
154104.000			12.571			-4.190
154205.000			12.571			-4.190
154304.000			12.571			-4.190
154404.000			12.571			-4.190
154504.000			12.572			-4.191
154604.000			12.571			-4.190
154704.000			12.571			-4.190
154805.000			12.571			-4.190
154904.000			12.570			-4.190
155004.000			12.570			-4.190
155105.000			12.569			-4.190
155204.000			12.569			-4.190
155304.000			12.570			-4.190
155404.000			12.569			-4.190
155504.000			12.570			-4.190
155603.000			12.569			-4.190
155704.000			12.569			-4.190
155804.000			12.569			-4.190
155905.000			12.569			-4.190
156004.000			12.569			-4.190
156104.000			12.568			-4.189
156205.000			12.569			-4.190
156303.000			12.570			-4.190
156404.000			12.569			-4.190
156504.000			12.567			-4.189
156604.000			12.567			-4.189
156704.000			12.567			-4.189
156805.000			12.568			-4.189
156904.000			12.568			-4.189
157004.000			12.567			-4.189
157105.000			12.567			-4.189
157203.000			12.567			-4.189
157304.000			12.567			-4.189
157404.000			12.567			-4.189
157504.000			12.566			-4.189
157604.000			12.566			-4.189
157705.000			12.566			-4.189
157804.000			12.566			-4.189
157904.000			12.566			-4.189
158005.000			12.566			-4.189
158103.000			12.567			-4.189
158204.000			12.567			-4.189
158304.000			12.566			-4.189
158404.000			12.565			-4.188
158504.000			12.565			-4.188
158605.000			12.565			-4.188
158704.000			12.566			-4.189
158805.000			12.567			-4.189
158904.000			12.565			-4.188
159004.000			12.564			-4.188
159105.000			12.565			-4.188
159203.000			12.565			-4.188
159304.000			12.564			-4.188
159405.000			12.564			-4.188
159504.000			12.564			-4.188
159604.000			12.565			-4.188
159705.000			12.564			-4.188
159804.000			12.564			-4.188
159904.000			12.563			-4.188
160005.000			12.563			-4.188
160103.000			12.562			-4.187
160204.000			12.562			-4.187
160305.000			12.563			-4.188
160404.000			12.563			-4.188
160504.000			12.563			-4.188
160605.000			12.562			-4.187
160704.000			12.562			-4.187
160803.000			12.562			-4.187
160905.000			12.561			-4.187
161003.000			12.562			-4.187
161104.000			12.563			-4.188
161205.000			12.562			-4.187
161304.000			12.561			-4.187
161404.000			12.562			-4.187
161505.000			12.562			-4.187
161604.000			12.561			-4.187
161703.000			12.561			-4.187
161805.000			12.561			-4.187
161904.000			12.562			-4.187
162005.000			12.562			-4.187
162104.000			12.561			-4.187
162204.000			12.560			-4.187
162305.000			12.560			-4.187
162404.000			12.561			-4.187
162504.000			12.560			-4.187
162604.000			12.561			-4.187
162704.000			12.560			-4.187
162804.000			12.560			-4.187
162905.000			12.559			-4.186
163004.000			12.560			-4.187
163104.000			12.560			-4.187
163205.000			12.559			-4.186
163303.000			12.558			-4.186
163404.000			12.558			-4.186
163504.000			12.559			-4.186
163604.000			12.560			-4.187
163704.000			12.560			-4.187
163805.000			12.559			-4.186
163904.000			12.558			-4.186
164004.000			12.558			-4.186
164105.000			12.559			-4.186
164203.000			12.558			-4.186
164304.000			12.558			-4.186
164404.000			12.558			-4.186
164504.000			12.557			-4.186
164604.000			12.557			-4.186
164705.000			12.558			-4.186
164804.000			12.557			-4.186
164904.000			12.557			-4.186
165005.000			12.557			-4.186
165103.000			12.557			-4.186
165205.000			12.557			-4.186
165303.000			12.557			-4.186
165404.000			12.556			-4.185
165505.000			12.556			-4.185
165604.000			12.556			-4.185
165704.000			12.555			-4.185
165805.000			12.556			-4.185
165904.000			12.556			-4.185
166003.000			12.556			-4.185
166105.000			12.555			-4.185
166203.000			12.555			-4.185
166304.000			12.556			-4.185
166405.000			12.556			-4.185
166504.000			12.554			-4.185
166604.000			12.554			-4.185
166705.000			12.555			-4.185
166804.000			12.555			-4.185
166903.000			12.554			-4.185
167005.000			12.555			-4.185
167103.000			12.555			-4.185
167204.000			12.554			-4.185
167305.000			12.554			-4.185
167404.000			12.554			-4.185
167504.000			12.553			-4.184
167605.000			12.554			-4.185
167704.000			12.553			-4.184
167803.000			12.553			-4.184
167905.000			12.553			-4.184
168003.000			12.553			-4.184
168104.000			12.553			-4.184
168205.000			12.554			-4.185
168304.000			12.554			-4.185
168405.000			12.554			-4.185
168504.000			12.554			-4.185
168604.000			12.553			-4.184
168705.000			12.554			-4.185
168804.000			12.554			-4.185
168903.000			12.554			-4.185
169005.000			12.553			-4.184
169104.000			12.553			-4.184
169204.000			12.552			-4.184
169305.000			12.550			-4.183
169404.000			12.550			-4.183
169504.000			12.551			-4.184
169605.000			12.551			-4.184
169704.000			12.550			-4.183
169803.000			12.551			-4.184
169905.000			12.551			-4.184
170004.000			12.551			-4.184
170104.000			12.550			-4.183
170205.000			12.550			-4.183
170304.000			12.551			-4.184
170404.000			12.550			-4.183
170504.000			12.550			-4.183
170604.000			12.550			-4.183
170703.000			12.549			-4.183
170805.000			12.549			-4.183
170904.000			12.549			-4.183
171004.000			12.549			-4.183
171105.000			12.549			-4.183
171204.000			12.550			-4.183
171304.000			12.550			-4.183
171404.000			12.549			-4.183
171504.000			12.549			-4.183
171603.000			12.549			-4.183
171704.000			12.549			-4.183
171804.000			12.548			-4.183
171905.000			12.548			-4.183
172004.000			12.549			-4.183
172104.000			12.548			-4.183
172205.000			12.548			-4.183
172303.000			12.547			-4.182
172404.000			12.547			-4.182
172504.000			12.547			-4.182
172604.000			12.548			-4.183
172704.000			12.548			-4.183
172805.000			12.548			-4.183
172904.000			12.547			-4.182
173004.000			12.547			-4.182
173105.000			12.547			-4.182
173203.000			12.547			-4.182
173304.000			12.547			-4.182
173405.000			12.547			-4.182
173504.000			12.548			-4.183
173604.000			12.547			-4.182
173705.000			12.547			-4.182
173804.000			12.546			-4.182
173904.000			12.546			-4.182
174005.000			12.546			-4.182
174103.000			12.546			-4.182
174204.000			12.547			-4.182
174305.000			12.547			-4.182
174404.000			12.546			-4.182
174504.000			12.546			-4.182
174605.000			12.546			-4.182
174704.000			12.545			-4.182
174805.000			12.545			-4.182
174904.000			12.546			-4.182
175003.000			12.545			-4.182
175105.000			12.545			-4.182
175204.000			12.545			-4.182
175304.000			12.545			-4.182
175405.000			12.544			-4.181
175504.000			12.544			-4.181
175604.000			12.543			-4.181
175705.000			12.544			-4.181
175804.000			12.544			-4.181
175903.000			12.544			-4.181
176005.000			12.544			-4.181
176104.000			12.544			-4.181
176204.000			12.544			-4.181
176305.000			12.544			-4.181
176404.000			12.544			-4.181
176504.000			12.542			-4.181
176605.000			12.543			-4.181
176704.000			12.542			-4.181
176803.000			12.542			-4.181
176905.000			12.543			-4.181
177004.000			12.544			-4.181
177104.000			12.544			-4.181
177205.000			12.542			-4.181
177304.000			12.543			-4.181
177404.000			12.542			-4.181
177505.000			12.541			-4.180
177604.000			12.541			-4.180
177703.000			12.541			-4.180
177805.000			12.542			-4.181
177904.000			12.541			-4.180
178005.000			12.542			-4.181
178104.000			12.541			-4.180
178204.000			12.541			-4.180
178305.000			12.542			-4.181
178404.000			12.541			-4.180
178504.000			12.541			-4.180
178604.000			12.542			-4.181
178704.000			12.541			-4.180
178804.000			12.541			-4.180
178905.000			12.542			-4.181
179004.000			12.541			-4.180
179104.000			12.541			-4.180
179205.000			12.542			-4.181
179304.000			12.541			-4.180
179404.000			12.541			-4.180
179504.000			12.540			-4.180
179604.000			12.539			-4.180
179703.000			12.539			-4.180
179805.000			12.540			-4.180
179904.000			12.540			-4.180
180004.000			12.540			-4.180
180105.000			12.539			-4.180
180204.000			12.539			-4.180
180304.000			12.539			-4.180
180404.000			12.538			-4.179
180504.000			12.538			-4.179
180603.000			12.538			-4.179
180705.000			12.538			-4.179
180804.000			12.539			-4.180
180904.000			12.538			-4.179
181005.000			12.539			-4.180
181104.000			12.538			-4.179
181205.000			12.537			-4.179
181303.000			12.538			-4.179
181404.000			12.538			-4.179
181505.000			12.537			-4.179
181604.000			12.536			-4.179
181704.000			12.536			-4.179
181805.000			12.537			-4.179
181904.000			12.536			-4.179
182004.000			12.535			-4.178
182105.000			12.537			-4.179
182203.000			12.537			-4.179
182304.000			12.535			-4.178
182405.000			12.535			-4.178
182504.000			12.535			-4.178
182604.000			12.536			-4.179
182705.000			12.535			-4.178
182804.000			12.535			-4.178
182904.000			12.535			-4.178
183005.000			12.535			-4.178
183103.000			12.535			-4.178
183204.000			12.536			-4.179
183305.000			12.534			-4.178
183404.000			12.534			-4.178
183504.000			12.534			-4.178
183605.000			12.534			-4.178
183704.000			12.534			-4.178
183804.000			12.536			-4.179
183905.000			12.535			-4.178
184003.000			12.535			-4.178
184104.000			12.536			-4.179
184205.000			12.536			-4.179
184304.000			12.536			-4.179
184405.000			12.536			-4.179
184504.000			12.536			-4.179
184604.000			12.535			-4.178
184704.000			12.536			-4.179
184804.000			12.536			-4.179
184903.000			12.535			-4.178
185005.000			12.537			-4.179
185104.000			12.537			-4.179
185204.000			12.536			-4.179
185305.000			12.536			-4.179
185404.000			12.535			-4.178
185504.000			12.536			-4.179
185604.000			12.536			-4.179
185704.000			12.536			-4.179
185803.000			12.535			-4.178
185905.000			12.535			-4.178
186004.000			12.535			-4.178
186104.000			12.535			-4.178
186205.000			12.535			-4.178
186304.000			12.534			-4.178
186404.000			12.533			-4.178
186504.000			12.533			-4.178
186604.000			12.533			-4.178
186703.000			12.532			-4.177
186805.000			12.533			-4.178
186904.000			12.534			-4.178
187004.000			12.533			-4.178
187105.000			12.532			-4.177
187204.000			12.532			-4.177
187304.000			12.532			-4.177
187404.000			12.531			-4.177
187504.000			12.531			-4.177
187605.000			12.532			-4.177
187704.000			12.531			-4.177
187804.000			12.530			-4.177
187905.000			12.530			-4.177
188004.000			12.530			-4.177
188104.000			12.530			-4.177
188205.000			12.530			-4.177
188303.000			12.529			-4.176
188404.000			12.530			-4.177
188505.000			12.530			-4.177
188604.000			12.529			-4.176
188704.000			12.529			-4.176
188805.000			12.530			-4.177
188904.000			12.529			-4.176
189004.000			12.530			-4.177
189105.000			12.529			-4.176
189203.000			12.529			-4.176
189304.000			12.529			-4.176
189404.000			12.529			-4.176
189504.000			12.529			-4.176
189604.000			12.528			-4.176
189705.000			12.529			-4.176
189804.000			12.529			-4.176
189904.000			12.529			-4.176
190005.000			12.529			-4.176
190104.000			12.529			-4.176
190204.000			12.529			-4.176
190304.000			12.529			-4.176
190404.000			12.528			-4.176
190504.000			12.527			-4.176
190605.000			12.527			-4.176
190704.000			12.528			-4.176
190805.000			12.528			-4.176
190904.000			12.527			-4.176
191004.000			12.527			-4.176
191105.000			12.528			-4.176
191203.000			12.528			-4.176
191304.000			12.528			-4.176
191405.000			12.527			-4.176
191504.000			12.526			-4.175
191604.000			12.526			-4.175
191705.000			12.525			-4.175
191804.000			12.525			-4.175
191903.000			12.525			-4.175
192005.000			12.525			-4.175
192103.000			12.526			-4.175
192204.000			12.527			-4.176
192305.000			12.526			-4.175
192404.000			12.526			-4.175
192504.000			12.526			-4.175
192605.000			12.524			-4.175
192704.000			12.525			-4.175
192803.000			12.525			-4.175
192905.000			12.525			-4.175
193004.000			12.524			-4.175
193104.000			12.524			-4.175
193205.000			12.524			-4.175
193304.000			12.524			-4.175
193404.000			12.524			-4.175
193505.000			12.524			-4.175
193604.000			12.523			-4.174
193703.000			12.524			-4.175
193805.000			12.524			-4.175
193904.000			12.524			-4.175
194005.000			12.522			-4.174
194104.000			12.522			-4.174
194204.000			12.523			-4.174
194305.000			12.523			-4.174
194404.000			12.522			-4.174
194504.000			12.521			-4.174
194604.000			12.522			-4.174
194704.000			12.522			-4.174
194804.000			12.522			-4.174
194905.000			12.522			-4.174
195004.000			12.522			-4.174
195104.000			12.520			-4.173
195205.000			12.521			-4.174
195304.000			12.522			-4.174
195404.000			12.522			-4.174
195504.000			12.520			-4.173
195604.000			12.520			-4.173
195704.000			12.521			-4.174
195805.000			12.522			-4.174
195904.000			12.521			-4.174
196004.000			12.521			-4.174
196105.000			12.520			-4.173
196203.000			12.518			-4.173
196304.000			12.519			-4.173
196404.000			12.519			-4.173
196504.000			12.519			-4.173
196604.000			12.519			-4.173
196705.000			12.519			-4.173
196804.000			12.518			-4.173
196904.000			12.519			-4.173
197005.000			12.520			-4.173
197104.000			12.520			-4.173
197205.000			12.520			-4.173
197303.000			12.519			-4.173
197404.000			12.519			-4.173
197505.000			12.520			-4.173
197604.000			12.520			-4.173
197704.000			12.520			-4.173
197805.000			12.520			-4.173
197904.000			12.520			-4.173
198004.000			12.520			-4.173
198105.000			12.520			-4.173
198203.000			12.520			-4.173
198304.000			12.520			-4.173
198405.000			12.520			-4.173
198504.000			12.520			-4.173
198604.000			12.519			-4.173
198705.000			12.518			-4.173
198804.000			12.518			-4.173
198904.000			12.519			-4.173
199005.000			12.519			-4.173
199103.000			12.518			-4.173
199204.000			12.519			-4.173
199305.000			12.518			-4.173
199404.000			12.518			-4.173
199504.000			12.518			-4.173
199605.000			12.517			-4.172
199704.000			12.518			-4.173
199804.000			12.518			-4.173
199905.000			12.517			-4.172
200003.000			12.517			-4.172
200104.000			12.517			-4.172
200205.000			12.517			-4.172
200304.000			12.517			-4.172
200405.000			12.516			-4.172
200504.000			12.516			-4.172
200604.000			12.517			-4.172
200705.000			12.516			-4.172
200804.000			12.516			-4.172
200903.000			12.515			-4.172
201005.000			12.515			-4.172
201104.000			12.515			-4.172
201204.000			12.516			-4.172
201305.000			12.516			-4.172
201404.000			12.514			-4.171
201504.000			12.514			-4.171
201604.000			12.515			-4.172
201704.000			12.514			-4.171
201804.000			12.514			-4.171
201905.000			12.514			-4.171
202004.000			12.514			-4.171
202104.000			12.514			-4.171
202205.000			12.514			-4.171
202304.000			12.514			-4.171
202404.000			12.514			-4.171
202504.000			12.513			-4.171
202604.000			12.513			-4.171
202704.000			12.513			-4.171
202805.000			12.513			-4.171
202904.000			12.512			-4.171
203004.000			12.512			-4.171
203105.000			12.512			-4.171
203203.000			12.513			-4.171
203304.000			12.513			-4.171
203405.000			12.513			-4.171
203504.000			12.513			-4.171
203605.000			12.512			-4.171
203704.000			12.511			-4.170
203804.000			12.511			-4.170
203904.000			12.512			-4.171
204004.000			12.511			-4.170
204103.000			12.510			-4.170
204205.000			12.511			-4.170
204304.000			12.510			-4.170
204404.000			12.509			-4.170
204505.000			12.509			-4.170
204604.000			12.510			-4.170
204704.000			12.511			-4.170
204804.000			12.510			-4.170
204904.000			12.510			-4.170
205004.000			12.509			-4.170
205105.000			12.509			-4.170
205204.000			12.509			-4.170
205304.000			12.508			-4.169
205405.000			12.509			-4.170
205503.000			12.509			-4.170
205604.000			12.510			-4.170
205705.000			12.509			-4.170
205804.000			12.509			-4.170
205904.000			12.509			-4.170
206005.000			12.509			-4.170
206104.000			12.509			-4.170
206204.000			12.509			-4.170
206305.000			12.508			-4.169
206403.000			12.509			-4.170
206504.000			12.509			-4.170
206605.000			12.508			-4.169
206704.000			12.507			-4.169
206805.000			12.507			-4.169
206904.000			12.507			-4.169
207004.000			12.508			-4.169
207105.000			12.509			-4.170
207204.000			12.508			-4.169
207303.000			12.507			-4.169
207405.000			12.507			-4.169
207504.000			12.507			-4.169
207604.000			12.506			-4.169
207705.000			12.507			-4.169
207804.000			12.508			-4.169
207904.000			12.506			-4.169
208004.000			12.507			-4.169
208104.000			12.508			-4.169
208203.000			12.507			-4.169
208305.000			12.507			-4.169
208404.000			12.507			-4.169
208504.000			12.506			-4.169
208605.000			12.505			-4.168
208704.000			12.505			-4.168
208804.000			12.505			-4.168
208904.000			12.504			-4.168
209004.000			12.505			-4.168
209104.000			12.507			-4.169
209205.000			12.506			-4.169
209304.000			12.505			-4.168
209404.000			12.504			-4.168
209505.000			12.504			-4.168
209604.000			12.505			-4.168
209704.000			12.505			-4.168
209804.000			12.505			-4.168
209904.000			12.505			-4.168
210005.000			12.505			-4.168
210104.000			12.506			-4.169
210204.000			12.505			-4.168
210305.000			12.504			-4.168
210404.000			12.504			-4.168
210503.000			12.504			-4.168
210605.000			12.504			-4.168
210704.000			12.504			-4.168
210804.000			12.503			-4.168
210905.000			12.503			-4.168
211004.000			12.504			-4.168
211104.000			12.504			-4.168
211205.000			12.503			-4.168
211304.000			12.503			-4.168
211403.000			12.503			-4.168
211505.000			12.503			-4.168
211604.000			12.502			-4.167
211704.000			12.502			-4.167
211805.000			12.503			-4.168
211904.000			12.502			-4.167
212004.000			12.502			-4.167
212104.000			12.503			-4.168
212204.000			12.503			-4.168
212304.000			12.501			-4.167
212405.000			12.501			-4.167
212504.000			12.503			-4.168
212604.000			12.502			-4.167
212705.000			12.502			-4.167
212803.000			12.502			-4.167
212904.000			12.501			-4.167
213004.000			12.500			-4.167
213104.000			12.501			-4.167
213205.000			12.502			-4.167
213304.000			12.501			-4.167
213404.000			12.500			-4.167
213505.000			12.500			-4.167
213604.000			12.500			-4.167
213703.000			12.502			-4.167
213805.000			12.502			-4.167
213904.000			12.500			-4.167
214004.000			12.499			-4.166
214105.000			12.500			-4.167
214204.000			12.500			-4.167
214304.000			12.500			-4.167
214404.000			12.500			-4.167
214504.000			12.501			-4.167
214603.000			12.500			-4.167
214705.000			12.499			-4.166
214804.000			12.499			-4.166
214904.000			12.499			-4.166
215005.000			12.499			-4.166
215104.000			12.500			-4.167
215204.000			12.500			-4.167
215304.000			12.499			-4.166
215404.000			12.499			-4.166
215504.000			12.499			-4.166
215605.000			12.498			-4.166
215704.000			12.498			-4.166
215804.000			12.499			-4.166
215905.000			12.498			-4.166
216004.000			12.498			-4.166
216104.000			12.498			-4.166
216204.000			12.499			-4.166
216304.000			12.499			-4.166
216403.000			12.499			-4.166
216504.000			12.498			-4.166
216604.000			12.497			-4.166
216705.000			12.498			-4.166
216804.000			12.497			-4.166
216904.000			12.497			-4.166
217005.000			12.497			-4.166
217103.000			12.497			-4.166
217204.000			12.497			-4.166
217304.000			12.497			-4.166
217404.000			12.497			-4.166
217504.000			12.496			-4.165
217605.000			12.497			-4.166
217704.000			12.498			-4.166
217804.000			12.497			-4.166
217905.000			12.497			-4.166
218004.000			12.497			-4.166
218104.000			12.497			-4.166
218204.000			12.496			-4.165
218304.000			12.496			-4.165
218404.000			12.497			-4.166
218505.000			12.495			-4.165
218604.000			12.495			-4.165
218704.000			12.495			-4.165
218805.000			12.496			-4.165
218904.000			12.496			-4.165
219004.000			12.496			-4.165
219104.000			12.496			-4.165
219204.000			12.495			-4.165
219304.000			12.496			-4.165
219405.000			12.495			-4.165
219504.000			12.495			-4.165
219605.000			12.496			-4.165
219704.000			12.495			-4.165
219804.000			12.495			-4.165
219905.000			12.495			-4.165
220003.000			12.495			-4.165
220104.000			12.494			-4.165
220205.000			12.494			-4.165
220304.000			12.494			-4.165
220404.000			12.494			-4.165
220505.000			12.494			-4.165
220604.000			12.494			-4.165
220704.000			12.495			-4.165
220805.000			12.495			-4.165
220903.000			12.495			-4.165
221004.000			12.494			-4.165
221105.000			12.494			-4.165
221204.000			12.494			-4.165
221304.000			12.495			-4.165
221405.000			12.494			-4.165
221504.000			12.494			-4.165
221604.000			12.493			-4.164
221705.000			12.493			-4.164
221803.000			12.493			-4.164
221904.000			12.493			-4.164
222005.000			12.492			-4.164
222104.000			12.492			-4.164
222204.000			12.492			-4.164
222305.000			12.492			-4.164
222404.000			12.492			-4.164
222504.000			12.493			-4.164
222605.000			12.493			-4.164
222703.000			12.492			-4.164
222805.000			12.492			-4.164
222904.000			12.492			-4.164
223004.000			12.492			-4.164
223105.000			12.492			-4.164
223204.000			12.492			-4.164
223304.000			12.491			-4.164
223404.000			12.492			-4.164
223504.000			12.491			-4.164
223603.000			12.490			-4.163
223705.000			12.491			-4.164
223804.000			12.491			-4.164
223904.000			12.491			-4.164
224005.000			12.491			-4.164
224104.000			12.491			-4.164
224204.000			12.491			-4.164
224304.000			12.491			-4.164
224404.000			12.491			-4.164
224503.000			12.490			-4.163
224605.000			12.490			-4.163
224704.000			12.491			-4.164
224804.000			12.491			-4.164
224905.000			12.491			-4.164
225004.000			12.491			-4.164
225104.000			12.490			-4.163
225204.000			12.490			-4.163
225304.000			12.490			-4.163
225403.000			12.490			-4.163
225505.000			12.490			-4.163
225604.000			12.490			-4.163
225704.000			12.490			-4.163
225805.000			12.490			-4.163
225904.000			12.489			-4.163
226005.000			12.488			-4.163
226103.000			12.489			-4.163
226204.000			12.488			-4.163
226304.000			12.488			-4.163
226404.000			12.489			-4.163
226504.000			12.489			-4.163
226605.000			12.488			-4.163
226704.000			12.488			-4.163
226804.000			12.489			-4.163
226905.000			12.488			-4.163
227004.000			12.487			-4.162
227104.000			12.487			-4.162
227204.000			12.487			-4.162
227304.000			12.488			-4.163
227404.000			12.487			-4.162
227505.000			12.487			-4.162
227604.000			12.487			-4.162
227704.000			12.487			-4.162
227805.000			12.487			-4.162
227904.000			12.487			-4.162
228004.000			12.487			-4.162
228104.000			12.487			-4.162
228204.000			12.487			-4.162
228304.000			12.486			-4.162
228405.000			12.486			-4.162
228504.000			12.486			-4.162
228604.000			12.486			-4.162
228705.000			12.486			-4.162
228804.000			12.486			-4.162
228904.000			12.487			-4.162
229004.000			12.486			-4.162
229104.000			12.486			-4.162
229205.000			12.485			-4.162
229304.000			12.486			-4.162
229404.000			12.486			-4.162
229505.000			12.486			-4.162
229604.000			12.486			-4.162
229704.000			12.485			-4.162
229805.000			12.485			-4.162
229903.000			12.486			-4.162
230004.000			12.485			-4.162
230105.000			12.485			-4.162
230204.000			12.485			-4.162
230304.000			12.485			-4.162
230405.000			12.485			-4.162
230504.000			12.485			-4.162
230604.000			12.485			-4.162
230705.000			12.484			-4.161
230803.000			12.484			-4.161
230904.000			12.485			-4.162
231005.000			12.485			-4.162
231104.000			12.485			-4.162
231204.000			12.485			-4.162
231305.000			12.485			-4.162
231404.000			12.484			-4.161
231504.000			12.484			-4.161
231605.000			12.485			-4.162
231703.000			12.486			-4.162
231804.000			12.486			-4.162
231905.000			12.485			-4.162
232004.000			12.485			-4.162
232104.000			12.484			-4.161
232205.000			12.484			-4.161
232304.000			12.485			-4.162
232403.000			12.484			-4.161
232504.000			12.484			-4.161
232603.000			12.484			-4.161
232705.000			12.484			-4.161
232804.000			12.484			-4.161
232904.000			12.485			-4.162
233005.000			12.485			-4.162
233104.000			12.485			-4.162
233204.000			12.485			-4.162
233304.000			12.484			-4.161
233404.000			12.486			-4.162
233503.000			12.484			-4.161
233605.000			12.484			-4.161
233704.000			12.484			-4.161
233804.000			12.485			-4.162
233905.000			12.484			-4.161
234004.000			12.484			-4.161
234104.000			12.484			-4.161
234204.000			12.484			-4.161
234304.000			12.483			-4.161
234403.000			12.483			-4.161
234505.000			12.483			-4.161
234604.000			12.483			-4.161
234704.000			12.483			-4.161
234805.000			12.482			-4.161
234904.000			12.481			-4.160
235004.000			12.481			-4.160
235104.000			12.481			-4.160
235204.000			12.482			-4.161
235304.000			12.482			-4.161
235405.000			12.481			-4.160
235504.000			12.482			-4.161
235605.000			12.480			-4.160
235704.000			12.480			-4.160
235804.000			12.480			-4.160
235905.000			12.481			-4.160
236003.000			12.480			-4.160
236104.000			12.481			-4.160
236205.000			12.481			-4.160
236304.000			12.480			-4.160
236404.000			12.480			-4.160
236505.000			12.480			-4.160
236604.000			12.479			-4.160
236704.000			12.480			-4.160
236805.000			12.479			-4.160
236903.000			12.480			-4.160
237004.000			12.479			-4.160
237105.000			12.478			-4.159
237204.000			12.479			-4.160
237304.000			12.479			-4.160
237405.000			12.479			-4.160
237504.000			12.479			-4.160
237604.000			12.478			-4.159
237705.000			12.478			-4.159
237803.000			12.476			-4.159
237904.000			12.477			-4.159
238004.000			12.477			-4.159
238104.000			12.478			-4.159
238204.000			12.478			-4.159
238305.000			12.477			-4.159
238404.000			12.478			-4.159
238504.000			12.478			-4.159
238605.000			12.476			-4.159
238703.000			12.476			-4.159
238805.000			12.476			-4.159
238903.000			12.476			-4.159
239004.000			12.477			-4.159
239105.000			12.478			-4.159
239204.000			12.477			-4.159
239304.000			12.477			-4.159
239405.000			12.478			-4.159
239504.000			12.477			-4.159
239604.000			12.477			-4.159
239705.000			12.477			-4.159
239803.000			12.477			-4.159
239904.000			12.477			-4.159
240005.000			12.478			-4.159
240104.000			12.478			-4.159
240204.000			12.478			-4.159
240305.000			12.479			-4.160
240404.000			12.478			-4.159
240504.000			12.477			-4.159
240605.000			12.478			-4.159
240703.000			12.477			-4.159
240804.000			12.478			-4.159
240905.000			12.478			-4.159
241004.000			12.478			-4.159
241104.000			12.478			-4.159
241205.000			12.478			-4.159
241304.000			12.478			-4.159
241404.000			12.477			-4.159
241505.000			12.477			-4.159
241603.000			12.476			-4.159
241704.000			12.477			-4.159
241805.000			12.477			-4.159
241904.000			12.478			-4.159
242005.000			12.478			-4.159
242104.000			12.477			-4.159
242204.000			12.476			-4.159
242305.000			12.477			-4.159
242404.000			12.476			-4.159
242503.000			12.475			-4.158
242605.000			12.476			-4.159
242704.000			12.475			-4.158
242804.000			12.475			-4.158
242905.000			12.476			-4.159
243004.000			12.476			-4.159
243104.000			12.475			-4.158
243205.000			12.475			-4.158
243304.000			12.475			-4.158
243403.000			12.475			-4.158
243505.000			12.473			-4.158
243604.000			12.474			-4.158
243704.000			12.475			-4.158
243805.000			12.475			-4.158
243904.000			12.473			-4.158
244004.000			12.472			-4.157
244105.000			12.472			-4.157
244204.000			12.473			-4.158
244303.000			12.473			-4.158
244405.000			12.472			-4.157
244504.000			12.472			-4.157
244604.000			12.473			-4.158
244705.000			12.472			-4.157
244804.000			12.472			-4.157
244904.000			12.472			-4.157
245005.000			12.472			-4.157
245104.000			12.472			-4.157
245203.000			12.471			-4.157
245304.000			12.471			-4.157
245404.000			12.471			-4.157
245505.000			12.472			-4.157
245604.000			12.471			-4.157
245704.000			12.472			-4.157
245805.000			12.470			-4.157
245904.000			12.470			-4.157
246004.000			12.471			-4.157
246104.000			12.471			-4.157
246204.000			12.471			-4.157
246304.000			12.471			-4.157
246405.000			12.472			-4.157
246504.000			12.471			-4.157
246604.000			12.470			-4.157
246705.000			12.470			-4.157
246803.000			12.470			-4.157
246904.000			12.470			-4.157
247004.000			12.470			-4.157
247104.000			12.471			-4.157
247204.000			12.470			-4.157
247305.000			12.469			-4.156
247404.000			12.469			-4.156
247504.000			12.468			-4.156
247605.000			12.469			-4.156
247703.000			12.470			-4.157
247804.000			12.470			-4.157
247904.000			12.469			-4.156
248004.000			12.468			-4.156
248104.000			12.469			-4.156
248205.000			12.469			-4.156
248304.000			12.468			-4.156
248405.000			12.468			-4.156
248504.000			12.469			-4.156
248604.000			12.469			-4.156
248705.000			12.468			-4.156
248803.000			12.468			-4.156
248904.000			12.469			-4.156
249005.000			12.468			-4.156
249104.000			12.467			-4.156
249204.000			12.467			-4.156
249305.000			12.467			-4.156
249404.000			12.467			-4.156
249504.000			12.467			-4.156
249605.000			12.467			-4.156
249703.000			12.467			-4.156
249804.000			12.467			-4.156
249905.000			12.466			-4.155
250004.000			12.466			-4.155
250104.000			12.466			-4.155
250205.000			12.467			-4.156
250304.000			12.467			-4.156
250404.000			12.466			-4.155
250505.000			12.466			-4.155
250603.000			12.466			-4.155
250704.000			12.466			-4.155
250805.000			12.467			-4.156
250904.000			12.465			-4.155
251004.000			12.464			-4.155
251105.000			12.464			-4.155
251204.000			12.465			-4.155
251304.000			12.466			-4.155
251405.000			12.466			-4.155
251503.000			12.465			-4.155
251605.000			12.465			-4.155
251704.000			12.465			-4.155
251804.000			12.465			-4.155
251905.000			12.466			-4.155
252004.000			12.465			-4.155
252104.000			12.464			-4.155
252205.000			12.464			-4.155
252304.000			12.465			-4.155
252403.000			12.464			-4.155
252505.000			12.465			-4.155
252604.000			12.465			-4.155
252704.000			12.465			-4.155
252805.000			12.464			-4.155
252904.000			12.464			-4.155
253004.000			12.463			-4.154
253105.000			12.465			-4.155
253204.000			12.464			-4.155
253303.000			12.463			-4.154
253405.000			12.463			-4.154
253504.000			12.463			-4.154
253604.000			12.463			-4.154
253705.000			12.463			-4.154
253804.000			12.463			-4.154
253904.000			12.463			-4.154
254004.000			12.463			-4.154
254104.000			12.462			-4.154
254203.000			12.463			-4.154
254305.000			12.463			-4.154
254404.000			12.463			-4.154
254504.000			12.462			-4.154
254605.000			12.462			-4.154
254704.000			12.462			-4.154
254805.000			12.462			-4.154
254903.000			12.461			-4.154
255004.000			12.462			-4.154
255104.000			12.461			-4.154
255204.000			12.460			-4.153
255304.000			12.462			-4.154
255405.000			12.461			-4.154
255504.000			12.461			-4.154
255604.000			12.461			-4.154
255705.000			12.461			-4.154
255803.000			12.460			-4.153
255904.000			12.460			-4.153
256004.000			12.460			-4.153
256104.000			12.459			-4.153
256204.000			12.459			-4.153
256305.000			12.459			-4.153
256404.000			12.460			-4.153
256504.000			12.460			-4.153
256605.000			12.460			-4.153
256703.000			12.460			-4.153
256804.000			12.460			-4.153
256904.000			12.460			-4.153
257004.000			12.460			-4.153
257104.000			12.461			-4.154
257205.000			12.460			-4.153
257304.000			12.460			-4.153
257404.000			12.460			-4.153
257505.000			12.459			-4.153
257604.000			12.459			-4.153
257704.000			12.458			-4.153
257804.000			12.458			-4.153
257904.000			12.459			-4.153
258005.000			12.458			-4.153
258104.000			12.458			-4.153
258204.000			12.459			-4.153
258305.000			12.459			-4.153
258404.000			12.459			-4.153
258504.000			12.458			-4.153
258605.000			12.458			-4.153
258703.000			12.457			-4.152
258804.000			12.457			-4.152
258905.000			12.458			-4.153
259004.000			12.459			-4.153
259104.000			12.458			-4.153
259205.000			12.458			-4.153
259304.000			12.457			-4.152
259404.000			12.457			-4.152
259505.000			12.456			-4.152
259603.000			12.456			-4.152
259704.000			12.456			-4.152
259805.000			12.456			-4.152
259904.000			12.457			-4.152
260004.000			12.457			-4.152
260105.000			12.457			-4.152
260204.000			12.457			-4.152
260304.000			12.456			-4.152
260405.000			12.456			-4.152
260503.000			12.456			-4.152
260604.000			12.456			-4.152
260705.000			12.456			-4.152
260804.000			12.455			-4.152
260904.000			12.455			-4.152
261005.000			12.455			-4.152
261104.000			12.455			-4.152
261205.000			12.456			-4.152
261304.000			12.456			-4.152
261403.000			12.455			-4.152
261505.000			12.455			-4.152
261604.000			12.455			-4.152
261704.000			12.455			-4.152
261805.000			12.455			-4.152
261904.000			12.456			-4.152
262004.000			12.455			-4.152
262105.000			12.455			-4.152
262204.000			12.455			-4.152
262303.000			12.455			-4.152
262405.000			12.455			-4.152
262504.000			12.455			-4.152
262604.000			12.453			-4.151
262705.000			12.454			-4.151
262804.000			12.455			-4.152
262904.000			12.455			-4.152
263005.000			12.455			-4.152
263104.000			12.454			-4.151
263203.000			12.453			-4.151
263305.000			12.454			-4.151
263404.000			12.455			-4.152
263504.000			12.454			-4.151
263605.000			12.452			-4.151
263704.000			12.453			-4.151
263804.000			12.454			-4.151
263905.000			12.454			-4.151
264004.000			12.453			-4.151
264103.000			12.452			-4.151
264205.000			12.453			-4.151
264304.000			12.454			-4.151
264405.000			12.454			-4.151
264504.000			12.453			-4.151
264604.000			12.453			-4.151
264705.000			12.452			-4.151
264803.000			12.453			-4.151
264904.000			12.453			-4.151
265004.000			12.452			-4.151
265104.000			12.452			-4.151
265204.000			12.452			-4.151
265305.000			12.452			-4.151
265404.000			12.451			-4.150
265504.000			12.451			-4.150
265605.000			12.451			-4.150
265703.000			12.452			-4.151
265804.000			12.452			-4.151
265905.000			12.451			-4.150
266004.000			12.452			-4.151
266104.000			12.452			-4.151
266205.000			12.452			-4.151
266304.000			12.451			-4.150
266404.000			12.451			-4.150
266505.000			12.451			-4.150
266603.000			12.452			-4.151
266704.000			12.451			-4.151
266805.000			12.451			-4.150
266904.000			12.451			-4.150
267004.000			12.451			-4.150
267105.000			12.451			-4.150
267204.000			12.450			-4.150
267304.000			12.449			-4.150
267405.000			12.449			-4.150
267503.000			12.450			-4.150
267605.000			12.451			-4.150
267704.000			12.450			-4.150
267804.000			12.450			-4.150
267905.000			12.451			-4.150
268004.000			12.451			-4.150
268104.000			12.451			-4.150
268205.000			12.451			-4.150
268304.000			12.449			-4.150
268403.000			12.449			-4.150
268505.000			12.450			-4.150
268604.000			12.449			-4.150
268704.000			12.449			-4.150
268805.000			12.450			-4.150
268904.000			12.449			-4.150
269004.000			12.449			-4.150
269105.000			12.449			-4.150
269204.000			12.449			-4.150
269303.000			12.449			-4.150
269405.000			12.448			-4.149
269504.000			12.448			-4.149
269604.000			12.448			-4.149
269705.000			12.448			-4.149
269804.000			12.448			-4.149
269904.000			12.449			-4.150
270005.000			12.449			-4.150
270104.000			12.447			-4.149
270203.000			12.447			-4.149
270305.000			12.448			-4.149
270404.000			12.447			-4.149
270504.000			12.447			-4.149
270605.000			12.448			-4.149
270704.000			12.447			-4.149
270805.000			12.446			-4.149
270904.000			12.447			-4.149
271004.000			12.448			-4.149
271104.000			12.448			-4.149
271204.000			12.448			-4.149
271304.000			12.448			-4.149
271405.000			12.446			-4.149
271504.000			12.447			-4.149
271604.000			12.448			-4.149
271705.000			12.446			-4.149
271804.000			12.447			-4.149
271904.000			12.447			-4.149
272004.000			12.447			-4.149
272104.000			12.448			-4.149
272204.000			12.447			-4.149
272305.000			12.447			-4.149
272404.000			12.448			-4.149
272504.000			12.447			-4.149
272605.000			12.446			-4.149
272704.000			12.446			-4.149
272804.000			12.447			-4.149
272904.000			12.446			-4.149
273004.000			12.445			-4.148
273104.000			12.447			-4.149
273205.000			12.446			-4.149
273304.000			12.447			-4.149
273404.000			12.446			-4.149
273505.000			12.446			-4.149
273603.000			12.446			-4.149
273704.000			12.446			-4.149
273804.000			12.446			-4.149
273904.000			12.446			-4.149
274005.000			12.445			-4.148
274104.000			12.445			-4.148
274204.000			12.446			-4.149
274305.000			12.445			-4.148
274404.000			12.445			-4.148
274503.000			12.446			-4.149
274605.000			12.446			-4.149
274703.000			12.445			-4.148
274804.000			12.447			-4.149
274905.000			12.447			-4.149
275004.000			12.444			-4.148
275104.000			12.445			-4.148
275205.000			12.444			-4.148
275304.000			12.444			-4.148
275403.000			12.445			-4.148
275505.000			12.445			-4.148
275603.000			12.444			-4.148
275704.000			12.444			-4.148
275805.000			12.445			-4.148
275904.000			12.444			-4.148
276004.000			12.444			-4.148
276105.000			12.445			-4.148
276204.000			12.444			-4.148
276303.000			12.444			-4.148
276405.000			12.444			-4.148
276503.000			12.444			-4.148
276604.000			12.444			-4.148
276705.000			12.444			-4.148
276804.000			12.444			-4.148
276904.000			12.444			-4.148
277005.000			12.444			-4.148
277104.000			12.443			-4.148
277203.000			12.444			-4.148
277304.000			12.444			-4.148
277403.000			12.443			-4.148
277505.000			12.443			-4.148
277604.000			12.444			-4.148
277704.000			12.444			-4.148
277805.000			12.443			-4.148
277904.000			12.443			-4.148
278004.000			12.443			-4.148
278104.000			12.442			-4.147
278204.000			12.442			-4.147
278303.000			12.443			-4.148
278405.000			12.443			-4.148
278504.000			12.443			-4.148
278604.000			12.443			-4.148
278705.000			12.441			-4.147
278804.000			12.441			-4.147
278904.000			12.442			-4.147
279004.000			12.443			-4.148
279104.000			12.442			-4.147
279203.000			12.442			-4.147
279305.000			12.441			-4.147
279404.000			12.440			-4.147
279504.000			12.441			-4.147
279605.000			12.442			-4.147
279704.000			12.442			-4.147
279804.000			12.441			-4.147
279904.000			12.441			-4.147
280004.000			12.441			-4.147
280104.000			12.442			-4.147
280205.000			12.442			-4.147
280304.000			12.441			-4.147
280405.000			12.441			-4.147
280504.000			12.442			-4.147
280604.000			12.442			-4.147
280705.000			12.441			-4.147
280803.000			12.441			-4.147
280904.000			12.441			-4.147
281005.000			12.440			-4.147
281104.000			12.440			-4.147
281204.000			12.440			-4.147
281305.000			12.440			-4.147
281404.000			12.440			-4.147
281504.000			12.440			-4.147
281605.000			12.439			-4.146
281703.000			12.439			-4.146
281804.000			12.440			-4.147
281905.000			12.441			-4.147
282004.000			12.440			-4.147
282104.000			12.440			-4.147
282205.000			12.440			-4.147
282304.000			12.439			-4.146
282404.000			12.440			-4.147
282505.000			12.439			-4.146
282603.000			12.439			-4.146
282704.000			12.439			-4.146
282805.000			12.438			-4.146
282904.000			12.438			-4.146
283004.000			12.439			-4.146
283105.000			12.439			-4.146
283204.000			12.439			-4.146
283303.000			12.439			-4.146
283405.000			12.439			-4.146
283503.000			12.439			-4.146
283605.000			12.438			-4.146
283704.000			12.438			-4.146
283804.000			12.439			-4.146
283905.000			12.438			-4.146
284004.000			12.438			-4.146
284104.000			12.438			-4.146
284204.000			12.438			-4.146
284304.000			12.439			-4.146
284403.000			12.439			-4.146
284505.000			12.438			-4.146
284604.000			12.437			-4.146
284704.000			12.437			-4.146
284805.000			12.437			-4.146
284904.000			12.437			-4.146
285004.000			12.437			-4.146
285104.000			12.437			-4.146
285204.000			12.437			-4.146
285303.000			12.438			-4.146
285405.000			12.437			-4.146
285504.000			12.437			-4.146
285604.000			12.438			-4.146
285705.000			12.438			-4.146
285804.000			12.438			-4.146
285904.000			12.437			-4.146
286004.000			12.437			-4.146
286104.000			12.437			-4.146
286203.000			12.436			-4.145
286305.000			12.436			-4.145
286404.000			12.436			-4.145
286504.000			12.436			-4.145
286605.000			12.436			-4.145
286704.000			12.436			-4.145
286805.000			12.436			-4.145
286904.000			12.435			-4.145
287004.000			12.435			-4.145
287104.000			12.436			-4.145
287204.000			12.437			-4.146
287304.000			12.436			-4.145
287405.000			12.436			-4.145
287504.000			12.436			-4.145
287604.000			12.435			-4.145
287705.000			12.435			-4.145
287804.000			12.436			-4.145
287904.000			12.435			-4.145
288004.000			12.435			-4.145
288104.000			12.435			-4.145
288204.000			12.434			-4.145
288305.000			12.435			-4.145
288404.000			12.434			-4.145
288504.000			12.435			-4.145
288605.000			12.434			-4.145
288704.000			12.434			-4.145
288804.000			12.433			-4.144
288904.000			12.433			-4.144
289004.000			12.434			-4.145
289104.000			12.434			-4.145
289205.000			12.434			-4.145
289304.000			12.434			-4.145
289404.000			12.434			-4.145
289505.000			12.433			-4.144
289604.000			12.433			-4.144
289704.000			12.433			-4.144
289804.000			12.432			-4.144
289904.000			12.433			-4.144
290005.000			12.433			-4.144
290104.000			12.433			-4.144
290204.000			12.433			-4.144
290305.000			12.431			-4.144
290404.000			12.432			-4.144
290504.000			12.434			-4.145
290605.000			12.433			-4.144
290703.000			12.433			-4.144
290804.000			12.432			-4.144
290905.000			12.433			-4.144
291004.000			12.432			-4.144
291104.000			12.432			-4.144
291205.000			12.432			-4.144
291304.000			12.433			-4.144
291403.000			12.433			-4.144
291505.000			12.433			-4.144
291604.000			12.433			-4.144
291704.000			12.433			-4.144
291805.000			12.433			-4.144
291904.000			12.434			-4.145
292004.000			12.434			-4.145
292105.000			12.434			-4.145
292204.000			12.434			-4.145
292303.000			12.434			-4.145
292405.000			12.434			-4.145
292504.000			12.434			-4.145
292604.000			12.434			-4.145
292705.000			12.435			-4.145
292804.000			12.435			-4.145
292904.000			12.434			-4.145
293005.000			12.435			-4.145
293104.000			12.435			-4.145
293203.000			12.433			-4.144
293304.000			12.435			-4.145
293404.000			12.435			-4.145
293505.000			12.434			-4.145
293604.000			12.434			-4.145
293704.000			12.435			-4.145
293805.000			12.435			-4.145
293904.000			12.435			-4.145
294004.000			12.434			-4.145
294104.000			12.434			-4.145
294204.000			12.435			-4.145
294304.000			12.435			-4.145
294405.000			12.435			-4.145
294504.000			12.435			-4.145
294604.000			12.435			-4.145
294705.000			12.434			-4.145
294804.000			12.435			-4.145
294904.000			12.436			-4.145
295004.000			12.436			-4.145
295104.000			12.435			-4.145
295204.000			12.435			-4.145
295305.000			12.435			-4.145
295404.000			12.435			-4.145
295504.000			12.435			-4.145
295605.000			12.435			-4.145
295704.000			12.434			-4.145
295804.000			12.435			-4.145
295904.000			12.434			-4.145
296004.000			12.434			-4.145
296104.000			12.435			-4.145
296205.000			12.434			-4.145
296304.000			12.434			-4.145
296405.000			12.435			-4.145
296504.000			12.434			-4.145
296604.000			12.434			-4.145
296705.000			12.435			-4.145
296803.000			12.435			-4.145
296904.000			12.435			-4.145
297005.000			12.434			-4.145
297104.000			12.434			-4.145
297204.000			12.433			-4.144
297305.000			12.434			-4.145
297404.000			12.434			-4.145
297504.000			12.433			-4.144
297605.000			12.432			-4.144
297703.000			12.433			-4.144
297804.000			12.434			-4.145
297905.000			12.433			-4.144
298004.000			12.432			-4.144
298104.000			12.431			-4.144
298205.000			12.432			-4.144
298304.000			12.431			-4.144
298404.000			12.430			-4.143
298505.000			12.430			-4.143
298603.000			12.429			-4.143
298704.000			12.430			-4.143
298805.000			12.429			-4.143
298904.000			12.429			-4.143
299004.000			12.430			-4.143
299105.000			12.429			-4.143
299204.000			12.429			-4.143
299304.000			12.430			-4.143
299405.000			12.428			-4.143
299503.000			12.427			-4.142
299605.000			12.428			-4.143
299703.000			12.428			-4.143
299804.000			12.427			-4.142
299905.000			12.427			-4.142
