# Acquired on 29/01/2024 16:57:41 
# SPIDER: Creep_9mm_HM077x145x38AB-1
# CREEP MEASUREMENT

# time [ms]		force [N]		stiffness [N/mm]
1.000			-28.194			-3.133
104.000			-28.522			-3.169
204.000			-28.543			-3.171
305.000			-28.426			-3.158
404.000			-28.338			-3.149
504.000			-28.274			-3.142
605.000			-28.169			-3.130
703.000			-28.128			-3.125
804.000			-28.090			-3.121
905.000			-28.055			-3.117
1004.000			-28.024			-3.114
1104.000			-27.993			-3.110
1204.000			-27.963			-3.107
1304.000			-27.913			-3.101
1404.000			-27.891			-3.099
1505.000			-27.869			-3.097
1604.000			-27.847			-3.094
1704.000			-27.827			-3.092
1805.000			-27.808			-3.090
1903.000			-27.788			-3.088
2005.000			-27.753			-3.084
2104.000			-27.735			-3.082
2204.000			-27.720			-3.080
2305.000			-27.706			-3.078
2404.000			-27.690			-3.077
2504.000			-27.675			-3.075
2604.000			-27.661			-3.073
2704.000			-27.634			-3.070
2804.000			-27.621			-3.069
2905.000			-27.608			-3.068
3004.000			-27.596			-3.066
3104.000			-27.584			-3.065
3205.000			-27.573			-3.064
3303.000			-27.563			-3.063
3404.000			-27.540			-3.060
3505.000			-27.530			-3.059
3604.000			-27.519			-3.058
3704.000			-27.508			-3.056
3804.000			-27.498			-3.055
3904.000			-27.488			-3.054
4003.000			-27.479			-3.053
4105.000			-27.470			-3.052
4204.000			-27.451			-3.050
4304.000			-27.442			-3.049
4405.000			-27.434			-3.048
4503.000			-27.425			-3.047
4604.000			-27.416			-3.046
4705.000			-27.408			-3.045
4804.000			-27.401			-3.045
4904.000			-27.386			-3.043
5004.000			-27.378			-3.042
5104.000			-27.370			-3.041
5203.000			-27.363			-3.040
5304.000			-27.354			-3.039
5404.000			-27.347			-3.039
5505.000			-27.339			-3.038
5604.000			-27.324			-3.036
5703.000			-27.317			-3.035
5805.000			-27.311			-3.035
5904.000			-27.305			-3.034
6004.000			-27.298			-3.033
6105.000			-27.292			-3.032
6204.000			-27.284			-3.032
6304.000			-27.272			-3.030
6404.000			-27.266			-3.030
6504.000			-27.259			-3.029
6604.000			-27.253			-3.028
6705.000			-27.248			-3.028
6804.000			-27.242			-3.027
6904.000			-27.234			-3.026
7005.000			-27.229			-3.025
7103.000			-27.220			-3.024
7204.000			-27.213			-3.024
7305.000			-27.206			-3.023
7404.000			-27.201			-3.022
7504.000			-27.195			-3.022
7604.000			-27.190			-3.021
7704.000			-27.185			-3.021
7804.000			-27.175			-3.019
7905.000			-27.170			-3.019
8004.000			-27.164			-3.018
8104.000			-27.160			-3.018
8205.000			-27.155			-3.017
8303.000			-27.150			-3.017
8405.000			-27.144			-3.016
8504.000			-27.134			-3.015
8604.000			-27.130			-3.014
8705.000			-27.124			-3.014
8804.000			-27.120			-3.013
8904.000			-27.115			-3.013
9004.000			-27.111			-3.012
9104.000			-27.107			-3.012
9204.000			-27.097			-3.011
9305.000			-27.093			-3.010
9404.000			-27.089			-3.010
9503.000			-27.084			-3.009
9605.000			-27.079			-3.009
9704.000			-27.076			-3.008
9804.000			-27.072			-3.008
9905.000			-27.062			-3.007
10004.000			-27.059			-3.007
10104.000			-27.054			-3.006
10204.000			-27.050			-3.006
10304.000			-27.046			-3.005
10404.000			-27.042			-3.005
10505.000			-27.038			-3.004
10604.000			-27.034			-3.004
10703.000			-27.026			-3.003
10805.000			-27.022			-3.002
10904.000			-27.017			-3.002
11004.000			-27.014			-3.002
11105.000			-27.011			-3.001
11204.000			-27.006			-3.001
11304.000			-27.002			-3.000
11403.000			-26.996			-3.000
11504.000			-26.991			-2.999
11605.000			-26.988			-2.999
11704.000			-26.984			-2.998
11804.000			-26.981			-2.998
11905.000			-26.976			-2.997
12004.000			-26.973			-2.997
12103.000			-26.967			-2.996
12205.000			-26.963			-2.996
12304.000			-26.960			-2.996
12404.000			-26.956			-2.995
12505.000			-26.953			-2.995
12604.000			-26.950			-2.994
12704.000			-26.945			-2.994
12804.000			-26.939			-2.993
12904.000			-26.935			-2.993
13004.000			-26.932			-2.992
13105.000			-26.929			-2.992
13204.000			-26.925			-2.992
13304.000			-26.921			-2.991
13405.000			-26.918			-2.991
13503.000			-26.915			-2.991
13604.000			-26.908			-2.990
13705.000			-26.905			-2.989
13804.000			-26.903			-2.989
13904.000			-26.899			-2.989
14005.000			-26.896			-2.988
14104.000			-26.893			-2.988
14203.000			-26.890			-2.988
14305.000			-26.884			-2.987
14404.000			-26.881			-2.987
14504.000			-26.878			-2.986
14605.000			-26.876			-2.986
14704.000			-26.872			-2.986
14805.000			-26.869			-2.985
14903.000			-26.866			-2.985
15004.000			-26.860			-2.984
15105.000			-26.856			-2.984
15204.000			-26.854			-2.984
15304.000			-26.852			-2.984
15405.000			-26.849			-2.983
15504.000			-26.846			-2.983
15603.000			-26.843			-2.983
15705.000			-26.837			-2.982
15804.000			-26.835			-2.982
15904.000			-26.833			-2.981
16005.000			-26.830			-2.981
16104.000			-26.827			-2.981
16204.000			-26.824			-2.980
16304.000			-26.820			-2.980
16404.000			-26.818			-2.980
16504.000			-26.812			-2.979
16605.000			-26.811			-2.979
16704.000			-26.808			-2.979
16803.000			-26.805			-2.978
16905.000			-26.802			-2.978
17004.000			-26.800			-2.978
17104.000			-26.798			-2.978
17205.000			-26.792			-2.977
17304.000			-26.790			-2.977
17404.000			-26.787			-2.976
17504.000			-26.784			-2.976
17604.000			-26.781			-2.976
17703.000			-26.779			-2.975
17805.000			-26.776			-2.975
17904.000			-26.772			-2.975
18005.000			-26.769			-2.974
18104.000			-26.766			-2.974
18203.000			-26.763			-2.974
18305.000			-26.762			-2.974
18404.000			-26.760			-2.973
18504.000			-26.757			-2.973
18605.000			-26.753			-2.973
18704.000			-26.750			-2.972
18804.000			-26.748			-2.972
18904.000			-26.744			-2.972
19004.000			-26.743			-2.971
19104.000			-26.741			-2.971
19205.000			-26.736			-2.971
19304.000			-26.732			-2.970
19404.000			-26.730			-2.970
19505.000			-26.728			-2.970
19603.000			-26.726			-2.970
19704.000			-26.723			-2.969
19805.000			-26.721			-2.969
19904.000			-26.720			-2.969
20004.000			-26.717			-2.969
20105.000			-26.712			-2.968
20204.000			-26.710			-2.968
20303.000			-26.707			-2.967
20405.000			-26.706			-2.967
20504.000			-26.705			-2.967
20604.000			-26.703			-2.967
20705.000			-26.700			-2.967
20804.000			-26.696			-2.966
20904.000			-26.692			-2.966
21003.000			-26.691			-2.966
21104.000			-26.690			-2.966
21205.000			-26.688			-2.965
21304.000			-26.687			-2.965
21404.000			-26.684			-2.965
21505.000			-26.678			-2.964
21604.000			-26.675			-2.964
21703.000			-26.673			-2.964
21805.000			-26.672			-2.964
21904.000			-26.670			-2.963
22004.000			-26.669			-2.963
22105.000			-26.666			-2.963
22204.000			-26.664			-2.963
22304.000			-26.660			-2.962
22404.000			-26.658			-2.962
22504.000			-26.656			-2.962
22604.000			-26.655			-2.962
22705.000			-26.653			-2.961
22804.000			-26.649			-2.961
22904.000			-26.648			-2.961
23005.000			-26.644			-2.960
23103.000			-26.643			-2.960
23204.000			-26.641			-2.960
23305.000			-26.638			-2.960
23404.000			-26.635			-2.959
23504.000			-26.633			-2.959
23605.000			-26.631			-2.959
23704.000			-26.628			-2.959
23803.000			-26.627			-2.959
23905.000			-26.625			-2.958
24004.000			-26.622			-2.958
24104.000			-26.619			-2.958
24205.000			-26.618			-2.958
24304.000			-26.618			-2.958
24405.000			-26.613			-2.957
24503.000			-26.612			-2.957
24604.000			-26.609			-2.957
24705.000			-26.606			-2.956
24804.000			-26.605			-2.956
24904.000			-26.603			-2.956
25004.000			-26.602			-2.956
25104.000			-26.599			-2.955
25204.000			-26.598			-2.955
25305.000			-26.595			-2.955
25404.000			-26.593			-2.955
25504.000			-26.591			-2.955
25605.000			-26.590			-2.954
25703.000			-26.587			-2.954
25804.000			-26.585			-2.954
25905.000			-26.581			-2.953
26004.000			-26.580			-2.953
26104.000			-26.578			-2.953
26205.000			-26.577			-2.953
26304.000			-26.576			-2.953
26403.000			-26.574			-2.953
26505.000			-26.571			-2.952
26604.000			-26.568			-2.952
26704.000			-26.567			-2.952
26805.000			-26.566			-2.952
26904.000			-26.563			-2.951
27004.000			-26.561			-2.951
27104.000			-26.560			-2.951
27204.000			-26.558			-2.951
27304.000			-26.554			-2.950
27404.000			-26.553			-2.950
27504.000			-26.551			-2.950
27605.000			-26.549			-2.950
27704.000			-26.548			-2.950
27803.000			-26.547			-2.950
27905.000			-26.545			-2.949
28004.000			-26.542			-2.949
28104.000			-26.540			-2.949
28205.000			-26.539			-2.949
28304.000			-26.537			-2.949
28404.000			-26.535			-2.948
28504.000			-26.534			-2.948
28604.000			-26.532			-2.948
28704.000			-26.529			-2.948
28805.000			-26.525			-2.947
28904.000			-26.524			-2.947
29004.000			-26.523			-2.947
29105.000			-26.521			-2.947
29203.000			-26.520			-2.947
29304.000			-26.519			-2.947
29405.000			-26.518			-2.946
29504.000			-26.516			-2.946
29604.000			-26.513			-2.946
29705.000			-26.511			-2.946
29804.000			-26.510			-2.946
29903.000			-26.509			-2.945
30005.000			-26.507			-2.945
30104.000			-26.506			-2.945
30204.000			-26.503			-2.945
30305.000			-26.500			-2.944
30404.000			-26.499			-2.944
30504.000			-26.498			-2.944
30603.000			-26.497			-2.944
30704.000			-26.496			-2.944
30805.000			-26.493			-2.944
30904.000			-26.490			-2.943
31004.000			-26.488			-2.943
31105.000			-26.487			-2.943
31204.000			-26.486			-2.943
31303.000			-26.484			-2.943
31405.000			-26.482			-2.942
31504.000			-26.481			-2.942
31604.000			-26.480			-2.942
31705.000			-26.477			-2.942
31804.000			-26.475			-2.942
31904.000			-26.475			-2.942
32004.000			-26.473			-2.941
32104.000			-26.472			-2.941
32204.000			-26.470			-2.941
32305.000			-26.468			-2.941
32404.000			-26.466			-2.941
32504.000			-26.465			-2.941
32605.000			-26.464			-2.940
32703.000			-26.461			-2.940
32804.000			-26.460			-2.940
32905.000			-26.459			-2.940
33004.000			-26.457			-2.940
33104.000			-26.453			-2.939
33205.000			-26.451			-2.939
33304.000			-26.450			-2.939
33403.000			-26.450			-2.939
33505.000			-26.448			-2.939
33604.000			-26.446			-2.938
33704.000			-26.445			-2.938
33805.000			-26.443			-2.938
33904.000			-26.441			-2.938
34005.000			-26.440			-2.938
34103.000			-26.439			-2.938
34204.000			-26.437			-2.937
34305.000			-26.435			-2.937
34404.000			-26.435			-2.937
34504.000			-26.432			-2.937
34604.000			-26.430			-2.937
34704.000			-26.429			-2.937
34803.000			-26.427			-2.936
34905.000			-26.426			-2.936
35004.000			-26.424			-2.936
35104.000			-26.423			-2.936
35205.000			-26.422			-2.936
35303.000			-26.419			-2.935
35404.000			-26.417			-2.935
35505.000			-26.416			-2.935
35604.000			-26.416			-2.935
35704.000			-26.414			-2.935
35805.000			-26.412			-2.935
35904.000			-26.411			-2.935
36003.000			-26.407			-2.934
36105.000			-26.406			-2.934
36204.000			-26.405			-2.934
36304.000			-26.404			-2.934
36405.000			-26.403			-2.934
36504.000			-26.402			-2.934
36604.000			-26.401			-2.933
36704.000			-26.397			-2.933
36804.000			-26.396			-2.933
36904.000			-26.396			-2.933
37004.000			-26.394			-2.933
37104.000			-26.392			-2.932
37205.000			-26.391			-2.932
37304.000			-26.390			-2.932
37403.000			-26.387			-2.932
37505.000			-26.388			-2.932
37604.000			-26.387			-2.932
37704.000			-26.384			-2.932
37805.000			-26.382			-2.931
37904.000			-26.382			-2.931
38004.000			-26.381			-2.931
38104.000			-26.380			-2.931
38204.000			-26.376			-2.931
38304.000			-26.375			-2.931
38405.000			-26.373			-2.930
38504.000			-26.373			-2.930
38604.000			-26.372			-2.930
38705.000			-26.371			-2.930
38803.000			-26.369			-2.930
38904.000			-26.366			-2.930
39005.000			-26.365			-2.929
39104.000			-26.364			-2.929
39204.000			-26.363			-2.929
39305.000			-26.362			-2.929
39404.000			-26.360			-2.929
39503.000			-26.358			-2.929
39605.000			-26.357			-2.929
39704.000			-26.357			-2.929
39804.000			-26.356			-2.928
39905.000			-26.354			-2.928
40004.000			-26.352			-2.928
40104.000			-26.350			-2.928
40203.000			-26.350			-2.928
40304.000			-26.348			-2.928
40405.000			-26.347			-2.927
40504.000			-26.345			-2.927
40604.000			-26.344			-2.927
40704.000			-26.343			-2.927
40804.000			-26.342			-2.927
40903.000			-26.341			-2.927
41005.000			-26.340			-2.927
41104.000			-26.336			-2.926
41204.000			-26.336			-2.926
41305.000			-26.334			-2.926
41403.000			-26.332			-2.926
41504.000			-26.331			-2.926
41605.000			-26.330			-2.926
41704.000			-26.328			-2.925
41804.000			-26.328			-2.925
41905.000			-26.327			-2.925
42004.000			-26.326			-2.925
42103.000			-26.324			-2.925
42205.000			-26.322			-2.925
42304.000			-26.322			-2.925
42404.000			-26.320			-2.924
42505.000			-26.319			-2.924
42604.000			-26.317			-2.924
42704.000			-26.317			-2.924
42804.000			-26.315			-2.924
42904.000			-26.313			-2.924
43004.000			-26.313			-2.924
43105.000			-26.311			-2.923
43204.000			-26.310			-2.923
43303.000			-26.309			-2.923
43405.000			-26.308			-2.923
43504.000			-26.306			-2.923
43605.000			-26.305			-2.923
43704.000			-26.304			-2.923
43804.000			-26.303			-2.923
43905.000			-26.300			-2.922
44003.000			-26.298			-2.922
44104.000			-26.298			-2.922
44205.000			-26.297			-2.922
44304.000			-26.296			-2.922
44404.000			-26.294			-2.922
44505.000			-26.293			-2.921
44604.000			-26.293			-2.921
44703.000			-26.290			-2.921
44805.000			-26.289			-2.921
44904.000			-26.288			-2.921
45004.000			-26.287			-2.921
45105.000			-26.286			-2.921
45204.000			-26.285			-2.921
45304.000			-26.283			-2.920
45404.000			-26.281			-2.920
45504.000			-26.280			-2.920
45604.000			-26.279			-2.920
45705.000			-26.278			-2.920
45804.000			-26.277			-2.920
45904.000			-26.276			-2.920
46005.000			-26.276			-2.920
46103.000			-26.273			-2.919
46204.000			-26.271			-2.919
46305.000			-26.270			-2.919
46404.000			-26.269			-2.919
46504.000			-26.268			-2.919
46604.000			-26.266			-2.918
46704.000			-26.266			-2.918
46803.000			-26.265			-2.918
46904.000			-26.264			-2.918
47004.000			-26.262			-2.918
47105.000			-26.260			-2.918
47204.000			-26.259			-2.918
47304.000			-26.259			-2.918
47405.000			-26.258			-2.918
47503.000			-26.257			-2.917
47604.000			-26.255			-2.917
47705.000			-26.254			-2.917
47804.000			-26.254			-2.917
47904.000			-26.253			-2.917
48005.000			-26.252			-2.917
48104.000			-26.251			-2.917
48203.000			-26.249			-2.917
48305.000			-26.247			-2.916
48404.000			-26.245			-2.916
48504.000			-26.243			-2.916
48605.000			-26.243			-2.916
48704.000			-26.243			-2.916
48804.000			-26.242			-2.916
48904.000			-26.241			-2.916
49004.000			-26.238			-2.915
49104.000			-26.238			-2.915
49205.000			-26.237			-2.915
49304.000			-26.236			-2.915
49404.000			-26.235			-2.915
49505.000			-26.234			-2.915
49603.000			-26.233			-2.915
49704.000			-26.230			-2.914
49805.000			-26.230			-2.914
49904.000			-26.230			-2.914
50005.000			-26.229			-2.914
50104.000			-26.228			-2.914
50204.000			-26.226			-2.914
50304.000			-26.226			-2.914
50404.000			-26.226			-2.914
50504.000			-26.224			-2.914
50605.000			-26.222			-2.914
50704.000			-26.221			-2.913
50804.000			-26.220			-2.913
50905.000			-26.219			-2.913
51003.000			-26.218			-2.913
51104.000			-26.217			-2.913
51205.000			-26.215			-2.913
51304.000			-26.213			-2.913
51404.000			-26.213			-2.913
51504.000			-26.213			-2.913
51604.000			-26.212			-2.912
51704.000			-26.211			-2.912
51805.000			-26.210			-2.912
51904.000			-26.208			-2.912
52004.000			-26.206			-2.912
52105.000			-26.204			-2.912
52203.000			-26.205			-2.912
52304.000			-26.205			-2.912
52405.000			-26.204			-2.912
52504.000			-26.202			-2.911
52604.000			-26.199			-2.911
52705.000			-26.200			-2.911
52804.000			-26.199			-2.911
52903.000			-26.198			-2.911
53005.000			-26.198			-2.911
53104.000			-26.195			-2.911
53205.000			-26.193			-2.910
53304.000			-26.193			-2.910
53404.000			-26.191			-2.910
53505.000			-26.190			-2.910
53603.000			-26.190			-2.910
53704.000			-26.189			-2.910
53805.000			-26.189			-2.910
53904.000			-26.188			-2.910
54004.000			-26.186			-2.910
54105.000			-26.185			-2.909
54204.000			-26.183			-2.909
54303.000			-26.182			-2.909
54405.000			-26.181			-2.909
54504.000			-26.181			-2.909
54604.000			-26.179			-2.909
54705.000			-26.179			-2.909
54804.000			-26.177			-2.909
54904.000			-26.176			-2.908
55004.000			-26.175			-2.908
55104.000			-26.173			-2.908
55204.000			-26.173			-2.908
55305.000			-26.173			-2.908
55404.000			-26.172			-2.908
55503.000			-26.170			-2.908
55605.000			-26.169			-2.908
55704.000			-26.169			-2.908
55804.000			-26.168			-2.908
55905.000			-26.167			-2.907
56004.000			-26.167			-2.907
56104.000			-26.165			-2.907
56204.000			-26.164			-2.907
56304.000			-26.161			-2.907
56403.000			-26.160			-2.907
56504.000			-26.161			-2.907
56604.000			-26.160			-2.907
56705.000			-26.158			-2.906
56804.000			-26.157			-2.906
56903.000			-26.156			-2.906
57005.000			-26.156			-2.906
57104.000			-26.155			-2.906
57204.000			-26.153			-2.906
57305.000			-26.152			-2.906
57404.000			-26.151			-2.906
57504.000			-26.151			-2.906
57604.000			-26.150			-2.906
57704.000			-26.149			-2.905
57804.000			-26.148			-2.905
57905.000			-26.148			-2.905
58004.000			-26.147			-2.905
58104.000			-26.147			-2.905
58205.000			-26.145			-2.905
58303.000			-26.143			-2.905
58404.000			-26.142			-2.905
58505.000			-26.141			-2.905
58604.000			-26.141			-2.905
58704.000			-26.140			-2.904
58805.000			-26.138			-2.904
58904.000			-26.137			-2.904
59003.000			-26.137			-2.904
59105.000			-26.134			-2.904
59204.000			-26.133			-2.904
59304.000			-26.133			-2.904
59405.000			-26.133			-2.904
59504.000			-26.131			-2.903
59605.000			-26.130			-2.903
59703.000			-26.130			-2.903
59804.000			-26.130			-2.903
59905.000			-26.128			-2.903
60004.000			-26.127			-2.903
60104.000			-26.126			-2.903
60205.000			-26.126			-2.903
60304.000			-26.125			-2.903
60403.000			-26.124			-2.903
60505.000			-26.124			-2.903
60604.000			-26.121			-2.902
60704.000			-26.119			-2.902
60805.000			-26.119			-2.902
60903.000			-26.120			-2.902
61004.000			-26.119			-2.902
61105.000			-26.118			-2.902
61204.000			-26.116			-2.902
61304.000			-26.115			-2.902
61405.000			-26.115			-2.902
61504.000			-26.113			-2.901
61603.000			-26.112			-2.901
61705.000			-26.111			-2.901
61804.000			-26.111			-2.901
61904.000			-26.111			-2.901
62005.000			-26.108			-2.901
62104.000			-26.107			-2.901
62204.000			-26.108			-2.901
62304.000			-26.107			-2.901
62404.000			-26.106			-2.901
62504.000			-26.104			-2.900
62604.000			-26.103			-2.900
62704.000			-26.102			-2.900
62803.000			-26.101			-2.900
62904.000			-26.101			-2.900
63004.000			-26.101			-2.900
63105.000			-26.099			-2.900
63204.000			-26.097			-2.900
63304.000			-26.098			-2.900
63405.000			-26.096			-2.900
63503.000			-26.095			-2.899
63604.000			-26.094			-2.899
63705.000			-26.094			-2.899
63804.000			-26.093			-2.899
63904.000			-26.092			-2.899
64005.000			-26.092			-2.899
64104.000			-26.091			-2.899
64203.000			-26.090			-2.899
64305.000			-26.089			-2.899
64404.000			-26.087			-2.899
64504.000			-26.086			-2.898
64605.000			-26.085			-2.898
64704.000			-26.085			-2.898
64804.000			-26.084			-2.898
64904.000			-26.082			-2.898
65004.000			-26.082			-2.898
65104.000			-26.081			-2.898
65205.000			-26.081			-2.898
65304.000			-26.080			-2.898
65404.000			-26.079			-2.898
65505.000			-26.078			-2.898
65603.000			-26.077			-2.897
65704.000			-26.076			-2.897
65805.000			-26.076			-2.897
65904.000			-26.075			-2.897
66005.000			-26.073			-2.897
66104.000			-26.073			-2.897
66204.000			-26.072			-2.897
66304.000			-26.071			-2.897
66404.000			-26.069			-2.897
66504.000			-26.067			-2.896
66605.000			-26.068			-2.896
66704.000			-26.067			-2.896
66804.000			-26.067			-2.896
66905.000			-26.067			-2.896
67003.000			-26.066			-2.896
67104.000			-26.063			-2.896
67205.000			-26.063			-2.896
67304.000			-26.062			-2.896
67404.000			-26.062			-2.896
67505.000			-26.060			-2.896
67604.000			-26.059			-2.895
67703.000			-26.058			-2.895
67805.000			-26.059			-2.895
67904.000			-26.057			-2.895
68004.000			-26.057			-2.895
68105.000			-26.057			-2.895
68204.000			-26.056			-2.895
68304.000			-26.054			-2.895
68404.000			-26.054			-2.895
68504.000			-26.054			-2.895
68604.000			-26.050			-2.894
68705.000			-26.050			-2.894
68804.000			-26.050			-2.894
68904.000			-26.049			-2.894
69005.000			-26.048			-2.894
69103.000			-26.048			-2.894
69205.000			-26.046			-2.894
69304.000			-26.046			-2.894
69404.000			-26.046			-2.894
69505.000			-26.044			-2.894
69604.000			-26.044			-2.894
69704.000			-26.043			-2.894
69804.000			-26.042			-2.894
69904.000			-26.041			-2.893
70004.000			-26.040			-2.893
70105.000			-26.039			-2.893
70204.000			-26.039			-2.893
70304.000			-26.037			-2.893
70405.000			-26.037			-2.893
70503.000			-26.037			-2.893
70604.000			-26.036			-2.893
70705.000			-26.034			-2.893
70804.000			-26.034			-2.893
70904.000			-26.033			-2.893
71004.000			-26.032			-2.892
71104.000			-26.032			-2.892
71203.000			-26.031			-2.892
71305.000			-26.032			-2.892
71404.000			-26.029			-2.892
71504.000			-26.028			-2.892
71605.000			-26.027			-2.892
71703.000			-26.027			-2.892
71804.000			-26.027			-2.892
71905.000			-26.026			-2.892
72004.000			-26.026			-2.892
72104.000			-26.025			-2.892
72204.000			-26.023			-2.891
72304.000			-26.023			-2.891
72403.000			-26.021			-2.891
72504.000			-26.020			-2.891
72604.000			-26.020			-2.891
72705.000			-26.020			-2.891
72804.000			-26.019			-2.891
72904.000			-26.018			-2.891
73005.000			-26.017			-2.891
73103.000			-26.015			-2.891
73204.000			-26.015			-2.891
73305.000			-26.015			-2.891
73404.000			-26.014			-2.890
73504.000			-26.013			-2.890
73605.000			-26.012			-2.890
73704.000			-26.011			-2.890
73803.000			-26.010			-2.890
73905.000			-26.010			-2.890
74004.000			-26.009			-2.890
74104.000			-26.008			-2.890
74205.000			-26.006			-2.890
74304.000			-26.006			-2.890
74404.000			-26.005			-2.889
74504.000			-26.003			-2.889
74604.000			-26.003			-2.889
74704.000			-26.004			-2.889
74805.000			-26.003			-2.889
74904.000			-26.002			-2.889
75003.000			-26.001			-2.889
75105.000			-26.000			-2.889
75204.000			-26.000			-2.889
75304.000			-25.998			-2.889
75405.000			-25.998			-2.889
75504.000			-25.997			-2.889
75605.000			-25.995			-2.888
75704.000			-25.996			-2.888
75804.000			-25.994			-2.888
75904.000			-25.994			-2.888
76004.000			-25.993			-2.888
76104.000			-25.992			-2.888
76205.000			-25.991			-2.888
76304.000			-25.990			-2.888
76404.000			-25.990			-2.888
76505.000			-25.990			-2.888
76603.000			-25.989			-2.888
76704.000			-25.988			-2.888
76805.000			-25.987			-2.887
76904.000			-25.986			-2.887
77004.000			-25.986			-2.887
77105.000			-25.985			-2.887
77204.000			-25.983			-2.887
77303.000			-25.983			-2.887
77405.000			-25.982			-2.887
77504.000			-25.982			-2.887
77604.000			-25.980			-2.887
77705.000			-25.979			-2.887
77804.000			-25.979			-2.887
77904.000			-25.980			-2.887
78004.000			-25.978			-2.886
78104.000			-25.976			-2.886
78203.000			-25.975			-2.886
78305.000			-25.976			-2.886
78404.000			-25.976			-2.886
78504.000			-25.974			-2.886
78605.000			-25.974			-2.886
78704.000			-25.973			-2.886
78805.000			-25.971			-2.886
78903.000			-25.971			-2.886
79004.000			-25.971			-2.886
79105.000			-25.971			-2.886
79204.000			-25.970			-2.886
79304.000			-25.970			-2.886
79405.000			-25.968			-2.885
79504.000			-25.968			-2.885
79603.000			-25.967			-2.885
79705.000			-25.965			-2.885
79804.000			-25.964			-2.885
79904.000			-25.964			-2.885
80005.000			-25.964			-2.885
80104.000			-25.962			-2.885
80204.000			-25.963			-2.885
80304.000			-25.962			-2.885
80404.000			-25.960			-2.884
80503.000			-25.960			-2.884
80605.000			-25.960			-2.884
80704.000			-25.958			-2.884
80804.000			-25.957			-2.884
80905.000			-25.957			-2.884
81004.000			-25.956			-2.884
81104.000			-25.956			-2.884
81204.000			-25.956			-2.884
81304.000			-25.955			-2.884
81404.000			-25.953			-2.884
81505.000			-25.953			-2.884
81604.000			-25.951			-2.883
81704.000			-25.952			-2.884
81805.000			-25.951			-2.883
81903.000			-25.950			-2.883
82005.000			-25.950			-2.883
82104.000			-25.950			-2.883
82204.000			-25.949			-2.883
82305.000			-25.948			-2.883
82404.000			-25.947			-2.883
82504.000			-25.945			-2.883
82604.000			-25.945			-2.883
82704.000			-25.945			-2.883
82804.000			-25.944			-2.883
82905.000			-25.944			-2.883
83004.000			-25.943			-2.883
83104.000			-25.942			-2.882
83205.000			-25.941			-2.882
83303.000			-25.940			-2.882
83404.000			-25.940			-2.882
83505.000			-25.938			-2.882
83604.000			-25.938			-2.882
83704.000			-25.938			-2.882
83805.000			-25.937			-2.882
83904.000			-25.935			-2.882
84003.000			-25.935			-2.882
84105.000			-25.935			-2.882
84204.000			-25.934			-2.882
84304.000			-25.933			-2.881
84405.000			-25.934			-2.882
84504.000			-25.932			-2.881
84604.000			-25.931			-2.881
84705.000			-25.930			-2.881
84804.000			-25.930			-2.881
84903.000			-25.930			-2.881
85005.000			-25.929			-2.881
85104.000			-25.928			-2.881
85205.000			-25.927			-2.881
85304.000			-25.926			-2.881
85404.000			-25.925			-2.881
85505.000			-25.925			-2.881
85603.000			-25.925			-2.881
85704.000			-25.925			-2.881
85805.000			-25.924			-2.880
85904.000			-25.921			-2.880
86004.000			-25.921			-2.880
86105.000			-25.921			-2.880
86204.000			-25.921			-2.880
86303.000			-25.920			-2.880
86405.000			-25.919			-2.880
86504.000			-25.919			-2.880
86604.000			-25.917			-2.880
86705.000			-25.917			-2.880
86804.000			-25.916			-2.880
86904.000			-25.916			-2.880
87004.000			-25.915			-2.879
87104.000			-25.913			-2.879
87203.000			-25.914			-2.879
87305.000			-25.914			-2.879
87404.000			-25.913			-2.879
87504.000			-25.911			-2.879
87605.000			-25.911			-2.879
87703.000			-25.910			-2.879
87804.000			-25.911			-2.879
87904.000			-25.909			-2.879
88004.000			-25.908			-2.879
88104.000			-25.906			-2.878
88204.000			-25.906			-2.878
88304.000			-25.906			-2.878
88405.000			-25.906			-2.878
88504.000			-25.904			-2.878
88603.000			-25.903			-2.878
88705.000			-25.904			-2.878
88804.000			-25.902			-2.878
88904.000			-25.903			-2.878
89005.000			-25.903			-2.878
89104.000			-25.902			-2.878
89204.000			-25.900			-2.878
89304.000			-25.899			-2.878
89404.000			-25.900			-2.878
89504.000			-25.898			-2.878
89605.000			-25.898			-2.878
89704.000			-25.897			-2.877
89804.000			-25.898			-2.878
89905.000			-25.898			-2.878
90004.000			-25.896			-2.877
90104.000			-25.895			-2.877
90204.000			-25.894			-2.877
90304.000			-25.893			-2.877
90404.000			-25.892			-2.877
90505.000			-25.892			-2.877
90604.000			-25.892			-2.877
90704.000			-25.892			-2.877
90805.000			-25.890			-2.877
90903.000			-25.890			-2.877
91004.000			-25.889			-2.877
91105.000			-25.890			-2.877
91204.000			-25.889			-2.877
91304.000			-25.887			-2.876
91404.000			-25.886			-2.876
91504.000			-25.886			-2.876
91603.000			-25.885			-2.876
91704.000			-25.884			-2.876
91804.000			-25.884			-2.876
91905.000			-25.883			-2.876
92004.000			-25.884			-2.876
92104.000			-25.882			-2.876
92205.000			-25.881			-2.876
92303.000			-25.881			-2.876
92404.000			-25.879			-2.875
92505.000			-25.879			-2.875
92604.000			-25.877			-2.875
92704.000			-25.878			-2.875
92805.000			-25.878			-2.875
92904.000			-25.877			-2.875
93003.000			-25.877			-2.875
93105.000			-25.876			-2.875
93204.000			-25.875			-2.875
93304.000			-25.874			-2.875
93405.000			-25.874			-2.875
93504.000			-25.874			-2.875
93604.000			-25.872			-2.875
93705.000			-25.872			-2.875
93804.000			-25.872			-2.875
93903.000			-25.870			-2.874
94005.000			-25.869			-2.874
94104.000			-25.869			-2.874
94204.000			-25.869			-2.874
94305.000			-25.869			-2.874
94404.000			-25.869			-2.874
94504.000			-25.868			-2.874
94603.000			-25.866			-2.874
94704.000			-25.866			-2.874
94805.000			-25.865			-2.874
94904.000			-25.865			-2.874
95004.000			-25.865			-2.874
95105.000			-25.864			-2.874
95204.000			-25.863			-2.874
95303.000			-25.862			-2.874
95405.000			-25.862			-2.874
95504.000			-25.861			-2.873
95604.000			-25.860			-2.873
95705.000			-25.860			-2.873
95804.000			-25.859			-2.873
95904.000			-25.859			-2.873
96005.000			-25.857			-2.873
96104.000			-25.857			-2.873
96203.000			-25.856			-2.873
96305.000			-25.855			-2.873
96404.000			-25.856			-2.873
96504.000			-25.855			-2.873
96605.000			-25.855			-2.873
96704.000			-25.854			-2.873
96804.000			-25.853			-2.873
96904.000			-25.853			-2.873
97004.000			-25.852			-2.872
97104.000			-25.852			-2.872
97205.000			-25.850			-2.872
97304.000			-25.851			-2.872
97404.000			-25.850			-2.872
97505.000			-25.849			-2.872
97603.000			-25.848			-2.872
97704.000			-25.848			-2.872
97803.000			-25.847			-2.872
97904.000			-25.847			-2.872
98005.000			-25.847			-2.872
98104.000			-25.845			-2.872
98204.000			-25.846			-2.872
98305.000			-25.845			-2.872
98404.000			-25.844			-2.872
98503.000			-25.844			-2.872
98605.000			-25.843			-2.871
98704.000			-25.842			-2.871
98804.000			-25.841			-2.871
98905.000			-25.840			-2.871
99004.000			-25.840			-2.871
99104.000			-25.840			-2.871
99204.000			-25.839			-2.871
99304.000			-25.839			-2.871
99404.000			-25.838			-2.871
99505.000			-25.838			-2.871
99604.000			-25.837			-2.871
99704.000			-25.836			-2.871
99805.000			-25.836			-2.871
99903.000			-25.835			-2.871
100004.000			-25.834			-2.870
100104.000			-25.834			-2.870
100204.000			-25.833			-2.870
100304.000			-25.832			-2.870
100405.000			-25.832			-2.870
100504.000			-25.832			-2.870
100603.000			-25.830			-2.870
100705.000			-25.830			-2.870
100803.000			-25.830			-2.870
100904.000			-25.830			-2.870
101005.000			-25.829			-2.870
101104.000			-25.828			-2.870
101205.000			-25.828			-2.870
101304.000			-25.827			-2.870
101404.000			-25.827			-2.870
101504.000			-25.827			-2.870
101604.000			-25.826			-2.870
101704.000			-25.826			-2.870
101805.000			-25.825			-2.869
101904.000			-25.824			-2.869
102004.000			-25.823			-2.869
102105.000			-25.823			-2.869
102203.000			-25.823			-2.869
102304.000			-25.822			-2.869
102405.000			-25.821			-2.869
102504.000			-25.821			-2.869
102604.000			-25.820			-2.869
102705.000			-25.819			-2.869
102804.000			-25.819			-2.869
102903.000			-25.818			-2.869
103005.000			-25.817			-2.869
103104.000			-25.817			-2.869
103204.000			16.747			1.861
103379.000			-25.816			-2.868
103468.000			-25.815			-2.868
103556.000			-25.814			-2.868
103644.000			-25.814			-2.868
103732.000			-25.813			-2.868
103819.000			-25.812			-2.868
103907.000			-25.812			-2.868
104004.000			-25.813			-2.868
104104.000			-25.812			-2.868
104204.000			-25.811			-2.868
104304.000			-25.810			-2.868
104403.000			-25.810			-2.868
104504.000			-25.809			-2.868
104604.000			-25.809			-2.868
104705.000			-25.808			-2.868
104804.000			-25.808			-2.868
104904.000			-25.807			-2.867
105005.000			-25.806			-2.867
105103.000			-25.806			-2.867
105204.000			-25.806			-2.867
105305.000			-25.804			-2.867
105404.000			-25.804			-2.867
105504.000			-25.804			-2.867
105605.000			-25.802			-2.867
105704.000			-25.802			-2.867
105804.000			-25.802			-2.867
105905.000			-25.802			-2.867
106003.000			-25.801			-2.867
106104.000			-25.800			-2.867
106205.000			-25.799			-2.867
106304.000			-25.799			-2.867
106404.000			-25.799			-2.867
106505.000			-25.798			-2.866
106604.000			-25.798			-2.866
106703.000			-25.798			-2.866
106805.000			-25.796			-2.866
106904.000			-25.796			-2.866
107004.000			-25.796			-2.866
107105.000			-25.794			-2.866
107204.000			-25.795			-2.866
107304.000			-25.794			-2.866
107404.000			-25.793			-2.866
107504.000			-25.793			-2.866
107603.000			-25.792			-2.866
107704.000			-25.791			-2.866
107804.000			-25.791			-2.866
107905.000			-25.791			-2.866
108004.000			-25.791			-2.866
108104.000			-25.791			-2.866
108205.000			-25.790			-2.866
108303.000			-25.788			-2.865
108404.000			-25.788			-2.865
108505.000			-25.787			-2.865
108604.000			-25.787			-2.865
108704.000			-25.786			-2.865
108805.000			-25.785			-2.865
108904.000			-25.784			-2.865
109004.000			-25.785			-2.865
109105.000			-25.784			-2.865
109203.000			-25.784			-2.865
109304.000			-25.783			-2.865
109405.000			-25.782			-2.865
109504.000			-25.782			-2.865
109604.000			-25.782			-2.865
109705.000			-25.780			-2.864
109804.000			-25.780			-2.864
109903.000			-25.779			-2.864
110005.000			-25.779			-2.864
110104.000			-25.779			-2.864
110204.000			-25.778			-2.864
110305.000			-25.778			-2.864
110404.000			-25.779			-2.864
110504.000			-25.777			-2.864
110604.000			-25.776			-2.864
110704.000			-25.776			-2.864
110803.000			-25.776			-2.864
110904.000			-25.775			-2.864
111004.000			-25.775			-2.864
111105.000			-25.774			-2.864
111204.000			-25.772			-2.864
111304.000			-25.773			-2.864
111405.000			-25.773			-2.864
111503.000			-25.772			-2.864
111604.000			-25.771			-2.863
111705.000			-25.770			-2.863
111804.000			-25.771			-2.863
111904.000			-25.768			-2.863
112005.000			-25.769			-2.863
112104.000			-25.770			-2.863
112203.000			-25.769			-2.863
112305.000			-25.767			-2.863
112404.000			-25.767			-2.863
112504.000			-25.766			-2.863
112605.000			-25.765			-2.863
112704.000			-25.764			-2.863
112804.000			-25.764			-2.863
112904.000			-25.765			-2.863
113004.000			-25.764			-2.863
113103.000			-25.763			-2.863
113205.000			-25.762			-2.862
113304.000			-25.762			-2.862
113404.000			-25.761			-2.862
113505.000			-25.760			-2.862
113604.000			-25.759			-2.862
113704.000			-25.760			-2.862
113803.000			-25.759			-2.862
113904.000			-25.758			-2.862
114005.000			-25.758			-2.862
114104.000			-25.757			-2.862
114204.000			-25.756			-2.862
114305.000			-25.756			-2.862
114404.000			-25.756			-2.862
114503.000			-25.755			-2.862
114605.000			-25.755			-2.862
114704.000			-25.756			-2.862
114804.000			-25.754			-2.862
114905.000			-25.753			-2.861
115004.000			-25.754			-2.862
115104.000			-25.753			-2.861
115204.000			-25.753			-2.861
115304.000			-25.753			-2.861
115404.000			-25.752			-2.861
115505.000			-25.751			-2.861
115604.000			-25.751			-2.861
115704.000			-25.750			-2.861
115805.000			-25.750			-2.861
115904.000			-25.749			-2.861
116004.000			-25.749			-2.861
116104.000			-25.748			-2.861
116204.000			-25.748			-2.861
116304.000			-25.746			-2.861
116405.000			-25.747			-2.861
116504.000			-25.746			-2.861
116604.000			-25.745			-2.861
116705.000			-25.745			-2.861
116803.000			-25.745			-2.861
116904.000			-25.745			-2.861
117005.000			-25.744			-2.860
117104.000			-25.743			-2.860
117205.000			-25.742			-2.860
117304.000			-25.742			-2.860
117404.000			-25.742			-2.860
117504.000			-25.742			-2.860
117604.000			-25.741			-2.860
117704.000			-25.740			-2.860
117805.000			-25.739			-2.860
117904.000			-25.739			-2.860
118004.000			-25.739			-2.860
118105.000			-25.739			-2.860
118203.000			-25.737			-2.860
118304.000			-25.737			-2.860
118405.000			-25.736			-2.860
118504.000			-25.736			-2.860
118604.000			-25.735			-2.859
118705.000			-25.735			-2.859
118804.000			-25.735			-2.859
118904.000			-25.735			-2.859
119005.000			-25.734			-2.859
119103.000			-25.734			-2.859
119204.000			-25.733			-2.859
119305.000			-25.732			-2.859
119404.000			-25.732			-2.859
119504.000			-25.732			-2.859
119605.000			-25.731			-2.859
119704.000			-25.730			-2.859
119803.000			-25.730			-2.859
119905.000			-25.730			-2.859
120004.000			-25.728			-2.859
120104.000			-25.728			-2.859
120205.000			-25.728			-2.859
120304.000			-25.728			-2.859
120405.000			-25.727			-2.859
120503.000			-25.726			-2.858
120604.000			-25.726			-2.858
120705.000			-25.725			-2.858
120804.000			-25.724			-2.858
120904.000			-25.723			-2.858
121005.000			-25.723			-2.858
121104.000			-25.723			-2.858
121204.000			-25.723			-2.858
121305.000			-25.722			-2.858
121403.000			-25.722			-2.858
121504.000			-25.720			-2.858
121605.000			-25.720			-2.858
121704.000			-25.720			-2.858
121804.000			-25.719			-2.858
121905.000			-25.719			-2.858
122004.000			-25.719			-2.858
122103.000			-25.718			-2.858
122205.000			-25.718			-2.858
122304.000			-25.718			-2.858
122404.000			-25.718			-2.858
122505.000			-25.717			-2.857
122604.000			-25.717			-2.857
122704.000			-25.716			-2.857
122804.000			-25.714			-2.857
122904.000			-25.714			-2.857
123004.000			-25.715			-2.857
123105.000			-25.713			-2.857
123204.000			-25.713			-2.857
123304.000			-25.713			-2.857
123405.000			-25.713			-2.857
123503.000			-25.712			-2.857
123605.000			-25.712			-2.857
123704.000			-25.711			-2.857
123804.000			-25.711			-2.857
123905.000			-25.710			-2.857
124004.000			-25.710			-2.857
124104.000			-25.709			-2.857
124204.000			-25.710			-2.857
124304.000			-25.708			-2.856
124404.000			-25.708			-2.856
124505.000			-25.707			-2.856
124604.000			-25.708			-2.856
124704.000			-25.706			-2.856
124805.000			-25.705			-2.856
124903.000			-25.704			-2.856
125004.000			-25.705			-2.856
125105.000			-25.704			-2.856
125204.000			-25.703			-2.856
125304.000			-25.703			-2.856
125405.000			-25.702			-2.856
125504.000			-25.702			-2.856
125603.000			-25.702			-2.856
125705.000			-25.701			-2.856
125804.000			-25.701			-2.856
125904.000			-25.701			-2.856
126005.000			-25.701			-2.856
126104.000			-25.700			-2.856
126204.000			-25.700			-2.856
126304.000			-25.700			-2.856
126404.000			-25.698			-2.855
126503.000			-25.697			-2.855
126605.000			-25.697			-2.855
126704.000			-25.697			-2.855
126805.000			-25.697			-2.855
126904.000			-25.696			-2.855
127004.000			-25.695			-2.855
127105.000			-25.694			-2.855
127203.000			-25.694			-2.855
127304.000			-25.693			-2.855
127405.000			-25.693			-2.855
127504.000			-25.693			-2.855
127604.000			-25.691			-2.855
127705.000			-25.691			-2.855
127804.000			-25.691			-2.855
127903.000			-25.692			-2.855
128005.000			-25.691			-2.855
128104.000			-25.691			-2.855
128204.000			-25.690			-2.854
128305.000			-25.689			-2.854
128404.000			-25.688			-2.854
128504.000			-25.689			-2.854
128605.000			-25.688			-2.854
128704.000			-25.687			-2.854
128803.000			-25.687			-2.854
128905.000			-25.688			-2.854
129004.000			-25.687			-2.854
129104.000			-25.687			-2.854
129205.000			-25.686			-2.854
129304.000			-25.684			-2.854
129404.000			-25.683			-2.854
129504.000			-25.683			-2.854
129604.000			-25.684			-2.854
129704.000			-25.683			-2.854
129804.000			-25.682			-2.854
129904.000			-25.682			-2.854
130005.000			-25.680			-2.853
130104.000			-25.681			-2.853
130204.000			-25.680			-2.853
130305.000			-25.679			-2.853
130403.000			-25.679			-2.853
130504.000			-25.679			-2.853
130605.000			-25.679			-2.853
130704.000			-25.678			-2.853
130804.000			-25.678			-2.853
130905.000			-25.678			-2.853
131004.000			-25.676			-2.853
131103.000			-25.676			-2.853
131205.000			-25.677			-2.853
131304.000			-25.677			-2.853
131404.000			-25.676			-2.853
131505.000			-25.674			-2.853
131604.000			-25.674			-2.853
131704.000			-25.674			-2.853
131805.000			-25.674			-2.853
131904.000			-25.673			-2.853
132003.000			-25.672			-2.852
132105.000			-25.672			-2.852
132204.000			-25.671			-2.852
132304.000			-25.671			-2.852
132405.000			-25.670			-2.852
132504.000			-25.670			-2.852
132604.000			-25.670			-2.852
132704.000			-25.670			-2.852
132804.000			-25.670			-2.852
132903.000			-25.669			-2.852
133005.000			-25.668			-2.852
133104.000			-25.667			-2.852
133205.000			-25.667			-2.852
133304.000			-25.666			-2.852
133404.000			-25.666			-2.852
133505.000			-25.666			-2.852
133604.000			-25.665			-2.852
133704.000			-25.665			-2.852
133804.000			-25.664			-2.852
133904.000			-25.664			-2.852
134004.000			-25.662			-2.851
134105.000			-25.662			-2.851
134204.000			-25.663			-2.851
134304.000			-25.662			-2.851
134405.000			-25.661			-2.851
134504.000			-25.661			-2.851
134604.000			-25.661			-2.851
134704.000			-25.661			-2.851
134804.000			-25.660			-2.851
134904.000			-25.660			-2.851
135005.000			-25.659			-2.851
135104.000			-25.657			-2.851
135204.000			-25.658			-2.851
135305.000			-25.658			-2.851
135404.000			-25.656			-2.851
135504.000			-25.656			-2.851
135604.000			-25.657			-2.851
135704.000			-25.655			-2.851
135804.000			-25.654			-2.850
135905.000			-25.655			-2.851
136004.000			-25.655			-2.851
136104.000			-25.653			-2.850
136205.000			-25.654			-2.850
136303.000			-25.653			-2.850
136405.000			-25.652			-2.850
136503.000			-25.653			-2.850
136604.000			-25.652			-2.850
136705.000			-25.651			-2.850
136804.000			-25.651			-2.850
136904.000			-25.651			-2.850
137005.000			-25.650			-2.850
137104.000			-25.649			-2.850
137204.000			-25.648			-2.850
137305.000			-25.648			-2.850
137403.000			-25.648			-2.850
137504.000			-25.648			-2.850
137605.000			-25.647			-2.850
137704.000			-25.647			-2.850
137804.000			-25.647			-2.850
137905.000			-25.647			-2.850
138004.000			-25.646			-2.850
138104.000			-25.645			-2.849
138205.000			-25.645			-2.849
138303.000			-25.646			-2.850
138404.000			-25.644			-2.849
138505.000			-25.643			-2.849
138604.000			-25.642			-2.849
138704.000			-25.642			-2.849
138805.000			-25.643			-2.849
138904.000			-25.642			-2.849
139004.000			-25.641			-2.849
139105.000			-25.641			-2.849
139203.000			-25.641			-2.849
139304.000			-25.641			-2.849
139405.000			-25.639			-2.849
139504.000			-25.639			-2.849
139605.000			-25.638			-2.849
139704.000			-25.638			-2.849
139804.000			-25.638			-2.849
139905.000			-25.638			-2.849
140004.000			-25.636			-2.848
140103.000			-25.635			-2.848
140205.000			-25.634			-2.848
140304.000			-25.636			-2.848
140404.000			-25.636			-2.848
140505.000			-25.635			-2.848
140604.000			-25.635			-2.848
140704.000			-25.635			-2.848
140805.000			-25.634			-2.848
140904.000			-25.633			-2.848
141003.000			-25.632			-2.848
141105.000			-25.632			-2.848
141204.000			-25.632			-2.848
141304.000			-25.632			-2.848
141405.000			-25.631			-2.848
141504.000			-25.631			-2.848
141604.000			-25.631			-2.848
141704.000			-25.630			-2.848
141804.000			-25.630			-2.848
141903.000			-25.630			-2.848
142005.000			-25.629			-2.848
142104.000			-25.627			-2.847
142204.000			-25.627			-2.847
142305.000			-25.628			-2.848
142404.000			-25.628			-2.848
142504.000			-25.626			-2.847
142603.000			-25.627			-2.847
142704.000			-25.626			-2.847
142805.000			-25.626			-2.847
142904.000			-25.625			-2.847
143004.000			-25.626			-2.847
143105.000			-25.625			-2.847
143204.000			-25.624			-2.847
143304.000			-25.623			-2.847
143405.000			-25.623			-2.847
143503.000			-25.623			-2.847
143604.000			-25.623			-2.847
143705.000			-25.621			-2.847
143804.000			-25.622			-2.847
143904.000			-25.620			-2.847
144005.000			-25.620			-2.847
144104.000			-25.620			-2.847
144204.000			-25.621			-2.847
144305.000			-25.619			-2.847
144403.000			-25.619			-2.847
144504.000			-25.619			-2.847
144605.000			-25.618			-2.846
144704.000			-25.619			-2.847
144804.000			-25.618			-2.846
144905.000			-25.618			-2.846
145004.000			-25.617			-2.846
145104.000			-25.617			-2.846
145205.000			-25.617			-2.846
145303.000			-25.617			-2.846
145404.000			-25.617			-2.846
145505.000			-25.616			-2.846
145604.000			-25.615			-2.846
145704.000			-25.615			-2.846
145804.000			-25.614			-2.846
145904.000			-25.614			-2.846
146005.000			-25.613			-2.846
146104.000			-25.612			-2.846
146203.000			-25.611			-2.846
146305.000			-25.611			-2.846
146404.000			-25.610			-2.846
146504.000			-25.610			-2.846
146605.000			-25.610			-2.846
146704.000			-25.610			-2.846
146804.000			-25.609			-2.845
146905.000			-25.609			-2.845
147004.000			-25.608			-2.845
147103.000			-25.607			-2.845
147205.000			-25.607			-2.845
147304.000			-25.606			-2.845
147404.000			-25.607			-2.845
147505.000			-25.606			-2.845
147604.000			-25.606			-2.845
147704.000			-25.605			-2.845
147805.000			-25.604			-2.845
147904.000			-25.604			-2.845
148003.000			-25.605			-2.845
148105.000			-25.604			-2.845
148204.000			-25.603			-2.845
148304.000			-25.603			-2.845
148405.000			-25.602			-2.845
148504.000			-25.602			-2.845
148604.000			-25.602			-2.845
148704.000			-25.602			-2.845
148804.000			-25.601			-2.845
148903.000			-25.601			-2.845
149005.000			-25.601			-2.845
149104.000			-25.601			-2.845
149205.000			-25.600			-2.844
149304.000			-25.599			-2.844
149404.000			-25.599			-2.844
149505.000			-25.598			-2.844
149604.000			-25.599			-2.844
149704.000			-25.598			-2.844
149804.000			-25.597			-2.844
149904.000			-25.596			-2.844
150004.000			-25.597			-2.844
150105.000			-25.596			-2.844
150204.000			-25.595			-2.844
150304.000			-25.595			-2.844
150405.000			-25.595			-2.844
150504.000			-25.594			-2.844
150604.000			-25.594			-2.844
150704.000			-25.594			-2.844
150804.000			-25.593			-2.844
150904.000			-25.593			-2.844
151005.000			-25.593			-2.844
151104.000			-25.593			-2.844
151204.000			-25.592			-2.844
151305.000			-25.591			-2.843
151404.000			-25.590			-2.843
151504.000			-25.589			-2.843
151604.000			-25.590			-2.843
151704.000			-25.590			-2.843
151804.000			-25.589			-2.843
151905.000			-25.589			-2.843
152004.000			-25.590			-2.843
152104.000			-25.589			-2.843
152205.000			-25.587			-2.843
152304.000			-25.587			-2.843
152405.000			-25.587			-2.843
152503.000			-25.586			-2.843
152604.000			-25.587			-2.843
152704.000			-25.586			-2.843
152804.000			-25.585			-2.843
152904.000			-25.585			-2.843
153005.000			-25.586			-2.843
153104.000			-25.585			-2.843
153204.000			-25.583			-2.843
153305.000			-25.582			-2.842
153403.000			-25.583			-2.843
153504.000			-25.583			-2.843
153604.000			-25.581			-2.842
153704.000			-25.582			-2.842
153804.000			-25.583			-2.843
153905.000			-25.581			-2.842
154004.000			-25.580			-2.842
154104.000			-25.580			-2.842
154205.000			-25.580			-2.842
154303.000			-25.580			-2.842
154404.000			-25.579			-2.842
154504.000			-25.580			-2.842
154604.000			-25.578			-2.842
154704.000			-25.577			-2.842
154805.000			-25.578			-2.842
154904.000			-25.579			-2.842
155004.000			-25.578			-2.842
155105.000			-25.577			-2.842
155204.000			-25.576			-2.842
155304.000			-25.577			-2.842
155403.000			-25.576			-2.842
155504.000			-25.574			-2.842
155605.000			-25.574			-2.842
155704.000			-25.574			-2.842
155804.000			-25.574			-2.842
155905.000			-25.573			-2.841
156004.000			-25.573			-2.841
156104.000			-25.572			-2.841
156205.000			-25.571			-2.841
156303.000			-25.571			-2.841
156404.000			-25.572			-2.841
156504.000			-25.572			-2.841
156604.000			-25.570			-2.841
156704.000			-25.570			-2.841
156805.000			-25.570			-2.841
156904.000			-25.569			-2.841
157004.000			-25.569			-2.841
157105.000			-25.569			-2.841
157203.000			-25.569			-2.841
157304.000			-25.568			-2.841
157404.000			-25.568			-2.841
157504.000			-25.568			-2.841
157604.000			-25.568			-2.841
157705.000			-25.567			-2.841
157804.000			-25.566			-2.841
157904.000			-25.566			-2.841
158005.000			-25.565			-2.841
158104.000			-25.566			-2.841
158204.000			-25.565			-2.841
158304.000			-25.564			-2.840
158404.000			-25.565			-2.841
158504.000			-25.564			-2.840
158604.000			-25.564			-2.840
158704.000			-25.564			-2.840
158805.000			-25.563			-2.840
158904.000			-25.562			-2.840
159004.000			-25.561			-2.840
159105.000			-25.562			-2.840
159203.000			-25.561			-2.840
159304.000			-25.561			-2.840
159405.000			-25.560			-2.840
159504.000			-25.559			-2.840
159604.000			-25.559			-2.840
159705.000			-25.558			-2.840
159804.000			-25.559			-2.840
159904.000			-25.560			-2.840
160005.000			-25.558			-2.840
160103.000			-25.557			-2.840
160204.000			-25.557			-2.840
160304.000			-25.557			-2.840
160404.000			-25.557			-2.840
160504.000			-25.556			-2.840
160605.000			-25.555			-2.839
160704.000			-25.555			-2.839
160804.000			-25.556			-2.840
160905.000			-25.556			-2.840
161003.000			-25.556			-2.840
161104.000			-25.554			-2.839
161205.000			-25.554			-2.839
161304.000			-25.553			-2.839
161404.000			-25.553			-2.839
161505.000			-25.553			-2.839
161604.000			-25.553			-2.839
161704.000			-25.553			-2.839
161805.000			-25.551			-2.839
161903.000			-25.551			-2.839
162005.000			-25.551			-2.839
162104.000			-25.550			-2.839
162204.000			-25.550			-2.839
162305.000			-25.549			-2.839
162404.000			-25.549			-2.839
162504.000			-25.548			-2.839
162605.000			-25.548			-2.839
162704.000			-25.548			-2.839
162803.000			-25.548			-2.839
162905.000			-25.547			-2.839
163004.000			-25.546			-2.838
163104.000			-25.546			-2.838
163205.000			-25.546			-2.838
163304.000			-25.546			-2.838
163404.000			-25.545			-2.838
163505.000			-25.545			-2.838
163604.000			-25.546			-2.838
163703.000			-25.545			-2.838
163805.000			-25.545			-2.838
163904.000			-25.545			-2.838
164004.000			-25.544			-2.838
164105.000			-25.543			-2.838
164204.000			-25.543			-2.838
164304.000			-25.543			-2.838
164405.000			-25.543			-2.838
164504.000			-25.542			-2.838
164603.000			-25.542			-2.838
164705.000			-25.540			-2.838
164804.000			-25.541			-2.838
164904.000			-25.540			-2.838
165005.000			-25.540			-2.838
165104.000			-25.541			-2.838
165205.000			-25.540			-2.838
165304.000			-25.539			-2.838
165404.000			-25.538			-2.838
165504.000			-25.538			-2.838
165604.000			-25.537			-2.837
165704.000			-25.537			-2.837
165805.000			-25.537			-2.837
165904.000			-25.536			-2.837
166004.000			-25.536			-2.837
166105.000			-25.537			-2.837
166204.000			-25.535			-2.837
166304.000			-25.534			-2.837
166404.000			-25.535			-2.837
166504.000			-25.535			-2.837
166603.000			-25.536			-2.837
166705.000			-25.535			-2.837
166804.000			-25.535			-2.837
166904.000			-25.534			-2.837
167005.000			-25.533			-2.837
167104.000			-25.533			-2.837
167204.000			-25.532			-2.837
167304.000			-25.532			-2.837
167404.000			-25.532			-2.837
167503.000			-25.532			-2.837
167605.000			-25.530			-2.837
167704.000			-25.530			-2.837
167804.000			-25.530			-2.837
167905.000			-25.529			-2.837
168004.000			-25.529			-2.837
168104.000			-25.529			-2.837
168204.000			-25.529			-2.837
168304.000			-25.529			-2.837
168403.000			-25.528			-2.836
168504.000			-25.527			-2.836
168604.000			-25.528			-2.836
168705.000			-25.528			-2.836
168804.000			-25.527			-2.836
168904.000			-25.526			-2.836
169005.000			-25.525			-2.836
169104.000			-25.525			-2.836
169204.000			-25.524			-2.836
169304.000			-25.524			-2.836
169404.000			-25.525			-2.836
169504.000			-25.525			-2.836
169605.000			-25.524			-2.836
169704.000			-25.523			-2.836
169804.000			-25.522			-2.836
169905.000			-25.523			-2.836
170004.000			-25.522			-2.836
170104.000			-25.522			-2.836
170204.000			-25.521			-2.836
170304.000			-25.520			-2.836
170404.000			-25.521			-2.836
170505.000			-25.520			-2.836
170604.000			-25.520			-2.836
170704.000			-25.520			-2.836
170805.000			-25.520			-2.836
170904.000			-25.519			-2.835
171004.000			-25.518			-2.835
171104.000			-25.518			-2.835
171204.000			-25.517			-2.835
171304.000			-25.516			-2.835
171404.000			-25.516			-2.835
171504.000			-25.515			-2.835
171605.000			-25.516			-2.835
171704.000			-25.517			-2.835
171804.000			-25.516			-2.835
171905.000			-25.515			-2.835
172003.000			-25.516			-2.835
172104.000			-25.514			-2.835
172205.000			-25.514			-2.835
172304.000			-25.514			-2.835
172404.000			-25.514			-2.835
172505.000			-25.514			-2.835
172604.000			-25.513			-2.835
172704.000			-25.513			-2.835
172805.000			-25.512			-2.835
172903.000			-25.512			-2.835
173004.000			-25.512			-2.835
173105.000			-25.510			-2.834
173204.000			-25.511			-2.835
173304.000			-25.510			-2.834
173405.000			-25.509			-2.834
173504.000			-25.509			-2.834
173604.000			-25.509			-2.834
173705.000			-25.509			-2.834
173803.000			-25.509			-2.834
173904.000			-25.509			-2.834
174005.000			-25.508			-2.834
174104.000			-25.507			-2.834
174204.000			-25.506			-2.834
174305.000			-25.506			-2.834
174404.000			-25.507			-2.834
174504.000			-25.506			-2.834
174605.000			-25.506			-2.834
174703.000			-25.505			-2.834
174805.000			-25.505			-2.834
174904.000			-25.505			-2.834
175004.000			-25.504			-2.834
175105.000			-25.505			-2.834
175204.000			-25.505			-2.834
175304.000			-25.504			-2.834
175405.000			-25.503			-2.834
175504.000			-25.503			-2.834
175603.000			-25.502			-2.834
175705.000			-25.501			-2.833
175804.000			-25.501			-2.833
175904.000			-25.501			-2.833
176005.000			-25.501			-2.833
176104.000			-25.500			-2.833
176204.000			-25.501			-2.833
176304.000			-25.500			-2.833
176404.000			-25.498			-2.833
176503.000			-25.499			-2.833
176605.000			-25.499			-2.833
176704.000			-25.498			-2.833
176804.000			-25.498			-2.833
176905.000			-25.498			-2.833
177004.000			-25.497			-2.833
177104.000			-25.497			-2.833
177205.000			-25.497			-2.833
177304.000			-25.497			-2.833
177403.000			-25.497			-2.833
177505.000			-25.497			-2.833
177604.000			-25.496			-2.833
177704.000			-25.495			-2.833
177805.000			-25.495			-2.833
177904.000			-25.494			-2.833
178005.000			-25.494			-2.833
178104.000			-25.493			-2.833
178204.000			-25.493			-2.833
178304.000			-25.493			-2.833
178404.000			-25.493			-2.833
178503.000			-25.493			-2.833
178605.000			-25.493			-2.833
178704.000			-25.492			-2.832
178804.000			-25.491			-2.832
178905.000			-25.492			-2.832
179004.000			-25.491			-2.832
179104.000			-25.490			-2.832
179205.000			-25.490			-2.832
179304.000			-25.489			-2.832
179403.000			-25.488			-2.832
179505.000			-25.489			-2.832
179604.000			-25.489			-2.832
179704.000			-25.489			-2.832
179805.000			-25.489			-2.832
179904.000			-25.487			-2.832
180004.000			-25.487			-2.832
180105.000			-25.487			-2.832
180204.000			-25.488			-2.832
180304.000			-25.486			-2.832
180405.000			-25.485			-2.832
180503.000			-25.486			-2.832
180604.000			-25.486			-2.832
180705.000			-25.485			-2.832
180804.000			-25.485			-2.832
180904.000			-25.485			-2.832
181004.000			-25.484			-2.832
181104.000			-25.484			-2.832
181205.000			-25.484			-2.832
181304.000			-25.483			-2.831
181403.000			-25.483			-2.831
181505.000			-25.482			-2.831
181604.000			-25.482			-2.831
181704.000			-25.482			-2.831
181805.000			-25.482			-2.831
181904.000			-25.482			-2.831
182004.000			-25.481			-2.831
182105.000			-25.480			-2.831
182204.000			-25.479			-2.831
182303.000			-25.479			-2.831
182405.000			-25.479			-2.831
182504.000			-25.479			-2.831
182604.000			-25.479			-2.831
182705.000			-25.478			-2.831
182804.000			-25.478			-2.831
182904.000			-25.478			-2.831
183005.000			-25.478			-2.831
183104.000			-25.477			-2.831
183203.000			-25.477			-2.831
183305.000			-25.477			-2.831
183404.000			-25.475			-2.831
183504.000			-25.475			-2.831
183605.000			-25.475			-2.831
183704.000			-25.474			-2.830
183804.000			-25.475			-2.831
183905.000			-25.475			-2.831
184004.000			-25.473			-2.830
184103.000			-25.473			-2.830
184205.000			-25.474			-2.830
184304.000			-25.474			-2.830
184405.000			-25.473			-2.830
184504.000			-25.472			-2.830
184604.000			-25.472			-2.830
184705.000			-25.472			-2.830
184804.000			-25.471			-2.830
184904.000			-25.470			-2.830
185004.000			-25.469			-2.830
185104.000			-25.470			-2.830
185203.000			-25.470			-2.830
185305.000			-25.470			-2.830
185404.000			-25.470			-2.830
185504.000			-25.470			-2.830
185605.000			-25.470			-2.830
185704.000			-25.468			-2.830
185804.000			-25.468			-2.830
185905.000			-25.468			-2.830
186004.000			-25.468			-2.830
186103.000			-25.467			-2.830
186205.000			-25.467			-2.830
186304.000			-25.468			-2.830
186404.000			-25.467			-2.830
186505.000			-25.466			-2.830
186604.000			-25.467			-2.830
186704.000			-25.466			-2.830
186805.000			-25.466			-2.830
186904.000			-25.465			-2.829
187003.000			-25.464			-2.829
187105.000			-25.464			-2.829
187204.000			-25.463			-2.829
187304.000			-25.463			-2.829
187405.000			-25.463			-2.829
187504.000			-25.463			-2.829
187605.000			-25.462			-2.829
187704.000			-25.461			-2.829
187804.000			-25.461			-2.829
187904.000			-25.462			-2.829
188004.000			-25.461			-2.829
188103.000			-25.462			-2.829
188205.000			-25.461			-2.829
188304.000			-25.460			-2.829
188404.000			-25.460			-2.829
188505.000			-25.460			-2.829
188604.000			-25.459			-2.829
188704.000			-25.458			-2.829
188805.000			-25.458			-2.829
188904.000			-25.458			-2.829
189003.000			-25.457			-2.829
189105.000			-25.456			-2.828
189204.000			-25.456			-2.828
189304.000			-25.456			-2.828
189405.000			-25.457			-2.829
189504.000			-25.457			-2.829
189604.000			-25.457			-2.829
189705.000			-25.456			-2.828
189804.000			-25.456			-2.828
189904.000			-25.456			-2.828
190005.000			-25.455			-2.828
190103.000			-25.454			-2.828
190204.000			-25.453			-2.828
190305.000			-25.453			-2.828
190404.000			-25.454			-2.828
190504.000			-25.452			-2.828
190604.000			-25.452			-2.828
190704.000			-25.451			-2.828
190803.000			-25.452			-2.828
190904.000			-25.452			-2.828
191003.000			-25.451			-2.828
191105.000			-25.451			-2.828
191204.000			-25.450			-2.828
191304.000			-25.451			-2.828
191405.000			-25.450			-2.828
191504.000			-25.451			-2.828
191604.000			-25.450			-2.828
191704.000			-25.449			-2.828
191804.000			-25.450			-2.828
191903.000			-25.449			-2.828
192005.000			-25.448			-2.828
192104.000			-25.448			-2.828
192204.000			-25.447			-2.827
192305.000			-25.447			-2.827
192404.000			-25.445			-2.827
192504.000			-25.447			-2.827
192604.000			-25.446			-2.827
192704.000			-25.446			-2.827
192803.000			-25.446			-2.827
192905.000			-25.445			-2.827
193004.000			-25.446			-2.827
193104.000			-25.446			-2.827
193205.000			-25.445			-2.827
193304.000			-25.445			-2.827
193404.000			-25.444			-2.827
193505.000			-25.444			-2.827
193604.000			-25.443			-2.827
193703.000			-25.443			-2.827
193805.000			-25.443			-2.827
193904.000			-25.443			-2.827
194005.000			-25.443			-2.827
194104.000			-25.442			-2.827
194204.000			-25.441			-2.827
194305.000			-25.442			-2.827
194404.000			-25.440			-2.827
194504.000			-25.440			-2.827
194604.000			-25.440			-2.827
194704.000			-25.439			-2.827
194804.000			-25.439			-2.827
194905.000			-25.439			-2.827
195004.000			-25.439			-2.827
195104.000			-25.439			-2.827
195205.000			-25.438			-2.826
195304.000			-25.437			-2.826
195404.000			-25.437			-2.826
195504.000			-25.437			-2.826
195604.000			-25.437			-2.826
195703.000			-25.438			-2.826
195805.000			-25.437			-2.826
195904.000			-25.436			-2.826
196004.000			-25.436			-2.826
196105.000			-25.437			-2.826
196204.000			-25.436			-2.826
196304.000			-25.435			-2.826
196404.000			-25.435			-2.826
196504.000			-25.435			-2.826
196603.000			-25.434			-2.826
196705.000			-25.433			-2.826
196804.000			-25.433			-2.826
196904.000			-25.433			-2.826
197005.000			-25.433			-2.826
197104.000			-25.432			-2.826
197205.000			-25.432			-2.826
197304.000			-25.432			-2.826
197404.000			-25.432			-2.826
197504.000			-25.430			-2.826
197604.000			-25.430			-2.826
197704.000			-25.431			-2.826
197805.000			-25.430			-2.826
197904.000			-25.430			-2.826
198004.000			-25.430			-2.826
198105.000			-25.429			-2.825
198204.000			-25.428			-2.825
198304.000			-25.429			-2.825
198404.000			-25.430			-2.826
198504.000			-25.429			-2.825
198604.000			-25.429			-2.825
198705.000			-25.429			-2.825
198804.000			-25.428			-2.825
198904.000			-25.428			-2.825
199005.000			-25.427			-2.825
199104.000			-25.426			-2.825
199204.000			-25.426			-2.825
199304.000			-25.425			-2.825
199404.000			-25.424			-2.825
199503.000			-25.425			-2.825
199605.000			-25.424			-2.825
199704.000			-25.424			-2.825
199804.000			-25.425			-2.825
199905.000			-25.424			-2.825
200004.000			-25.424			-2.825
200104.000			-25.423			-2.825
200203.000			-25.423			-2.825
200304.000			-25.422			-2.825
200405.000			-25.421			-2.825
200504.000			-25.421			-2.825
200604.000			-25.422			-2.825
200705.000			-25.422			-2.825
200804.000			-25.422			-2.825
200904.000			-25.422			-2.825
201005.000			-25.421			-2.825
201103.000			-25.420			-2.824
201204.000			-25.419			-2.824
201305.000			-25.418			-2.824
201404.000			-25.419			-2.824
201504.000			-25.420			-2.824
201605.000			-25.419			-2.824
201704.000			-25.420			-2.824
201803.000			-25.419			-2.824
201905.000			-25.418			-2.824
202003.000			-25.419			-2.824
202104.000			-25.418			-2.824
202205.000			-25.417			-2.824
202304.000			-25.416			-2.824
202404.000			-25.416			-2.824
202505.000			-25.416			-2.824
202604.000			-25.416			-2.824
202703.000			-25.415			-2.824
202805.000			-25.415			-2.824
202904.000			-25.415			-2.824
203004.000			-25.413			-2.824
203105.000			-25.414			-2.824
203204.000			-25.413			-2.824
203304.000			-25.413			-2.824
203404.000			-25.413			-2.824
203504.000			-25.413			-2.824
203603.000			-25.413			-2.824
203704.000			-25.412			-2.824
203804.000			-25.411			-2.823
203905.000			-25.412			-2.824
204004.000			-25.412			-2.824
204104.000			-25.411			-2.823
204205.000			-25.411			-2.823
204303.000			-25.409			-2.823
204404.000			-25.410			-2.823
204505.000			-25.410			-2.823
204604.000			-25.410			-2.823
204704.000			-25.409			-2.823
204805.000			-25.409			-2.823
204904.000			-25.409			-2.823
205004.000			-25.408			-2.823
205105.000			-25.407			-2.823
205203.000			-25.408			-2.823
205304.000			-25.409			-2.823
205405.000			-25.408			-2.823
205504.000			-25.408			-2.823
205604.000			-25.408			-2.823
205705.000			-25.407			-2.823
205804.000			-25.407			-2.823
205903.000			-25.406			-2.823
206005.000			-25.406			-2.823
206103.000			-25.405			-2.823
206204.000			-25.405			-2.823
206305.000			-25.405			-2.823
206404.000			-25.405			-2.823
206504.000			-25.404			-2.823
206604.000			-25.404			-2.823
206704.000			-25.404			-2.823
206803.000			-25.403			-2.823
206904.000			-25.404			-2.823
207004.000			-25.404			-2.823
207105.000			-25.403			-2.823
207204.000			-25.403			-2.823
207304.000			-25.403			-2.823
207405.000			-25.401			-2.822
207504.000			-25.401			-2.822
207604.000			-25.400			-2.822
207704.000			-25.400			-2.822
207804.000			-25.400			-2.822
207904.000			-25.401			-2.822
208005.000			-25.401			-2.822
208104.000			-25.399			-2.822
208204.000			-25.398			-2.822
208305.000			-25.399			-2.822
208404.000			-25.399			-2.822
208504.000			-25.399			-2.822
208604.000			-25.399			-2.822
208704.000			-25.399			-2.822
208804.000			-25.398			-2.822
208905.000			-25.398			-2.822
209004.000			-25.397			-2.822
209104.000			-25.397			-2.822
209205.000			-25.397			-2.822
209304.000			-25.397			-2.822
209404.000			-25.396			-2.822
209504.000			-25.395			-2.822
209604.000			-25.395			-2.822
209704.000			-25.395			-2.822
209804.000			-25.395			-2.822
209904.000			-25.394			-2.822
210005.000			-25.395			-2.822
210104.000			-25.395			-2.822
210204.000			-25.394			-2.822
210305.000			-25.394			-2.822
210403.000			-25.394			-2.822
210504.000			-25.393			-2.821
210605.000			-25.392			-2.821
210704.000			-25.392			-2.821
210804.000			-25.392			-2.821
210905.000			-25.392			-2.821
211004.000			-25.392			-2.821
211104.000			-25.391			-2.821
211205.000			-25.390			-2.821
211303.000			-25.390			-2.821
211404.000			-25.391			-2.821
211505.000			-25.390			-2.821
211604.000			-25.389			-2.821
211704.000			-25.389			-2.821
211805.000			-25.388			-2.821
211904.000			-25.389			-2.821
212003.000			-25.388			-2.821
212105.000			-25.388			-2.821
212203.000			-25.388			-2.821
212304.000			-25.388			-2.821
212405.000			-25.388			-2.821
212504.000			-25.388			-2.821
212604.000			-25.388			-2.821
212705.000			-25.386			-2.821
212804.000			-25.387			-2.821
212903.000			-25.387			-2.821
213005.000			-25.387			-2.821
213103.000			-25.386			-2.821
213205.000			-25.386			-2.821
213304.000			-25.386			-2.821
213404.000			-25.384			-2.820
213505.000			-25.384			-2.820
213604.000			-25.383			-2.820
213704.000			-25.383			-2.820
213804.000			-25.382			-2.820
213904.000			-25.383			-2.820
214003.000			-25.384			-2.820
214105.000			-25.383			-2.820
214204.000			-25.382			-2.820
214304.000			-25.382			-2.820
214405.000			-25.382			-2.820
214504.000			-25.383			-2.820
214604.000			-25.380			-2.820
214704.000			-25.381			-2.820
214804.000			-25.381			-2.820
214904.000			-25.380			-2.820
215005.000			-25.380			-2.820
215104.000			-25.379			-2.820
215204.000			-25.379			-2.820
215305.000			-25.380			-2.820
215404.000			-25.379			-2.820
215504.000			-25.379			-2.820
215604.000			-25.378			-2.820
215704.000			-25.377			-2.820
215804.000			-25.377			-2.820
215905.000			-25.377			-2.820
216004.000			-25.376			-2.820
216104.000			-25.376			-2.820
216205.000			-25.376			-2.820
216304.000			-25.375			-2.819
216405.000			-25.375			-2.819
216503.000			-25.377			-2.820
216604.000			-25.376			-2.820
216705.000			-25.375			-2.819
216804.000			-25.374			-2.819
216904.000			-25.375			-2.819
217005.000			-25.374			-2.819
217104.000			-25.374			-2.819
217204.000			-25.374			-2.819
217305.000			-25.373			-2.819
217403.000			-25.373			-2.819
217504.000			-25.373			-2.819
217605.000			-25.373			-2.819
217704.000			-25.372			-2.819
217804.000			-25.371			-2.819
217905.000			-25.371			-2.819
218004.000			-25.371			-2.819
218104.000			-25.371			-2.819
218205.000			-25.370			-2.819
218303.000			-25.369			-2.819
218404.000			-25.369			-2.819
218505.000			-25.369			-2.819
218604.000			-25.369			-2.819
218704.000			-25.369			-2.819
218805.000			-25.370			-2.819
218904.000			-25.369			-2.819
219004.000			-25.369			-2.819
219105.000			-25.367			-2.819
219203.000			-25.367			-2.819
219304.000			-25.368			-2.819
219403.000			-25.368			-2.819
219504.000			-25.367			-2.819
219605.000			-25.366			-2.818
219704.000			-25.367			-2.819
219804.000			-25.366			-2.818
219905.000			-25.366			-2.818
220004.000			-25.366			-2.818
220104.000			-25.365			-2.818
220205.000			-25.365			-2.818
220303.000			-25.365			-2.818
220404.000			-25.364			-2.818
220505.000			-25.363			-2.818
220604.000			-25.363			-2.818
220704.000			-25.363			-2.818
220805.000			-25.363			-2.818
220904.000			-25.363			-2.818
221003.000			-25.363			-2.818
221105.000			-25.362			-2.818
221204.000			-25.362			-2.818
221304.000			-25.362			-2.818
221405.000			-25.362			-2.818
221504.000			-25.361			-2.818
221604.000			-25.361			-2.818
221705.000			-25.361			-2.818
221804.000			-25.361			-2.818
221903.000			-25.360			-2.818
222005.000			-25.360			-2.818
222104.000			-25.360			-2.818
222204.000			-25.359			-2.818
222305.000			-25.359			-2.818
222404.000			-25.359			-2.818
222504.000			-25.358			-2.818
222604.000			-25.359			-2.818
222704.000			-25.358			-2.818
222803.000			-25.357			-2.817
222904.000			-25.358			-2.818
223004.000			-25.358			-2.818
223105.000			-25.356			-2.817
223204.000			-25.356			-2.817
223304.000			-25.357			-2.817
223405.000			-25.357			-2.817
223504.000			-25.356			-2.817
223604.000			-25.355			-2.817
223704.000			-25.355			-2.817
223804.000			-25.355			-2.817
223904.000			-25.355			-2.817
224005.000			-25.355			-2.817
224104.000			-25.354			-2.817
224204.000			-25.354			-2.817
224305.000			-25.354			-2.817
224403.000			-25.353			-2.817
224504.000			-25.352			-2.817
224604.000			-25.351			-2.817
224704.000			-25.352			-2.817
224804.000			-25.352			-2.817
224905.000			-25.351			-2.817
225004.000			-25.351			-2.817
225104.000			-25.352			-2.817
225205.000			-25.351			-2.817
225303.000			-25.350			-2.817
225404.000			-25.350			-2.817
225505.000			-25.351			-2.817
225604.000			-25.351			-2.817
225704.000			-25.350			-2.817
225804.000			-25.349			-2.817
225904.000			-25.348			-2.816
226005.000			-25.348			-2.816
226104.000			-25.348			-2.816
226203.000			-25.349			-2.817
226305.000			-25.350			-2.817
226404.000			-25.349			-2.817
226504.000			-25.348			-2.816
226605.000			-25.347			-2.816
226704.000			-25.347			-2.816
226804.000			-25.346			-2.816
226905.000			-25.347			-2.816
227004.000			-25.346			-2.816
227103.000			-25.345			-2.816
227205.000			-25.345			-2.816
227304.000			-25.345			-2.816
227404.000			-25.345			-2.816
227505.000			-25.345			-2.816
227604.000			-25.344			-2.816
227704.000			-25.344			-2.816
227805.000			-25.343			-2.816
227904.000			-25.344			-2.816
228003.000			-25.343			-2.816
228105.000			-25.342			-2.816
228204.000			-25.343			-2.816
228304.000			-25.343			-2.816
228405.000			-25.342			-2.816
228504.000			-25.342			-2.816
228604.000			-25.343			-2.816
228704.000			-25.341			-2.816
228804.000			-25.341			-2.816
228903.000			-25.343			-2.816
229005.000			-25.343			-2.816
229104.000			-25.340			-2.816
229205.000			-25.340			-2.816
229304.000			-25.340			-2.816
229404.000			-25.340			-2.816
229505.000			-25.339			-2.815
229603.000			-25.338			-2.815
229704.000			-25.338			-2.815
229804.000			-25.340			-2.816
229904.000			-25.340			-2.816
230004.000			-25.339			-2.815
230105.000			-25.339			-2.815
230204.000			-25.338			-2.815
230304.000			-25.337			-2.815
230405.000			-25.338			-2.815
230504.000			-25.338			-2.815
230604.000			-25.338			-2.815
230704.000			-25.337			-2.815
230804.000			-25.337			-2.815
230904.000			-25.336			-2.815
231005.000			-25.334			-2.815
231104.000			-25.335			-2.815
231204.000			-25.336			-2.815
231305.000			-25.334			-2.815
231403.000			-25.334			-2.815
231504.000			-25.334			-2.815
231605.000			-25.333			-2.815
231704.000			-25.334			-2.815
231804.000			-25.335			-2.815
231905.000			-25.334			-2.815
232004.000			-25.332			-2.815
232104.000			-25.332			-2.815
232205.000			-25.331			-2.815
232303.000			-25.332			-2.815
232405.000			-25.331			-2.815
232504.000			-25.332			-2.815
232604.000			-25.332			-2.815
232705.000			-25.331			-2.815
232804.000			-25.331			-2.815
232904.000			-25.331			-2.815
233004.000			-25.330			-2.814
233104.000			-25.330			-2.814
233203.000			-25.330			-2.814
233305.000			-25.330			-2.814
233404.000			-25.329			-2.814
233504.000			-25.329			-2.814
233605.000			-25.329			-2.814
233704.000			-25.328			-2.814
233804.000			-25.329			-2.814
233904.000			-25.329			-2.814
234004.000			-25.328			-2.814
234103.000			-25.327			-2.814
234205.000			-25.328			-2.814
234304.000			-25.328			-2.814
234404.000			-25.327			-2.814
234505.000			-25.327			-2.814
234604.000			-25.327			-2.814
234704.000			-25.326			-2.814
234804.000			-25.326			-2.814
234904.000			-25.325			-2.814
235004.000			-25.325			-2.814
235105.000			-25.326			-2.814
235204.000			-25.326			-2.814
235304.000			-25.325			-2.814
235405.000			-25.325			-2.814
235504.000			-25.323			-2.814
235605.000			-25.324			-2.814
235703.000			-25.324			-2.814
235804.000			-25.324			-2.814
235905.000			-25.324			-2.814
236004.000			-25.323			-2.814
236104.000			-25.322			-2.814
236205.000			-25.322			-2.814
236304.000			-25.322			-2.814
236403.000			-25.322			-2.814
236505.000			-25.322			-2.814
236603.000			-25.321			-2.813
236704.000			-25.322			-2.814
236805.000			-25.323			-2.814
236904.000			-25.321			-2.813
237004.000			-25.320			-2.813
237105.000			-25.320			-2.813
237204.000			-25.319			-2.813
237303.000			-25.318			-2.813
237405.000			-25.320			-2.813
237504.000			-25.320			-2.813
237604.000			-25.320			-2.813
237705.000			-25.320			-2.813
237804.000			-25.319			-2.813
237904.000			-25.319			-2.813
238005.000			-25.319			-2.813
238104.000			-25.320			-2.813
238203.000			-25.319			-2.813
238305.000			-25.318			-2.813
238404.000			-25.317			-2.813
238504.000			-25.317			-2.813
238605.000			-25.316			-2.813
238704.000			-25.314			-2.813
238805.000			-25.314			-2.813
238904.000			-25.314			-2.813
239004.000			-25.315			-2.813
239104.000			-25.315			-2.813
239204.000			-25.316			-2.813
239303.000			-25.316			-2.813
239405.000			-25.315			-2.813
239504.000			-25.315			-2.813
239604.000			-25.315			-2.813
239705.000			-25.313			-2.813
239804.000			-25.313			-2.813
239904.000			-25.312			-2.812
240004.000			-25.313			-2.813
240104.000			-25.312			-2.812
240204.000			-25.312			-2.812
240305.000			-25.312			-2.812
240404.000			-25.313			-2.813
240504.000			-25.312			-2.812
240605.000			-25.311			-2.812
240704.000			-25.311			-2.812
240804.000			-25.310			-2.812
240904.000			-25.310			-2.812
241004.000			-25.311			-2.812
241104.000			-25.312			-2.812
241205.000			-25.311			-2.812
241304.000			-25.310			-2.812
241404.000			-25.309			-2.812
241505.000			-25.310			-2.812
241603.000			-25.308			-2.812
241704.000			-25.309			-2.812
241805.000			-25.308			-2.812
241904.000			-25.308			-2.812
242005.000			-25.308			-2.812
242104.000			-25.307			-2.812
242204.000			-25.305			-2.812
242305.000			-25.306			-2.812
242404.000			-25.307			-2.812
242503.000			-25.306			-2.812
242605.000			-25.306			-2.812
242704.000			-25.305			-2.812
242804.000			-25.304			-2.812
242905.000			-25.304			-2.812
243004.000			-25.305			-2.812
243104.000			-25.304			-2.812
243204.000			-25.304			-2.812
243304.000			-25.305			-2.812
243403.000			-25.305			-2.812
243505.000			-25.304			-2.812
243604.000			-25.303			-2.811
243704.000			-25.303			-2.811
243805.000			-25.303			-2.811
243904.000			-25.303			-2.811
244004.000			-25.303			-2.811
244104.000			-25.301			-2.811
244204.000			-25.302			-2.811
244304.000			-25.302			-2.811
244405.000			-25.302			-2.811
244504.000			-25.301			-2.811
244604.000			-25.300			-2.811
244705.000			-25.300			-2.811
244804.000			-25.300			-2.811
244904.000			-25.300			-2.811
245003.000			-25.299			-2.811
245104.000			-25.299			-2.811
245205.000			-25.298			-2.811
245304.000			-25.299			-2.811
245404.000			-25.298			-2.811
245505.000			-25.298			-2.811
245604.000			-25.300			-2.811
245704.000			-25.298			-2.811
245805.000			-25.298			-2.811
245903.000			-25.297			-2.811
246004.000			-25.297			-2.811
246105.000			-25.297			-2.811
246204.000			-25.296			-2.811
246304.000			-25.297			-2.811
246405.000			-25.296			-2.811
246504.000			-25.295			-2.811
246604.000			-25.296			-2.811
246705.000			-25.296			-2.811
246803.000			-25.295			-2.811
246904.000			-25.295			-2.811
247005.000			-25.294			-2.810
247104.000			-25.295			-2.811
247204.000			-25.294			-2.810
247305.000			-25.295			-2.811
247404.000			-25.294			-2.810
247504.000			-25.293			-2.810
247605.000			-25.294			-2.810
247703.000			-25.293			-2.810
247804.000			-25.293			-2.810
247905.000			-25.293			-2.810
248004.000			-25.292			-2.810
248104.000			-25.292			-2.810
248204.000			-25.291			-2.810
248304.000			-25.292			-2.810
248405.000			-25.292			-2.810
248504.000			-25.292			-2.810
248603.000			-25.291			-2.810
248705.000			-25.291			-2.810
248804.000			-25.291			-2.810
248904.000			-25.290			-2.810
249005.000			-25.290			-2.810
249104.000			-25.290			-2.810
249204.000			-25.289			-2.810
249305.000			-25.289			-2.810
249404.000			-25.288			-2.810
249503.000			-25.288			-2.810
249605.000			-25.289			-2.810
249703.000			-25.289			-2.810
249804.000			-25.289			-2.810
249905.000			-25.288			-2.810
250004.000			-25.288			-2.810
250104.000			-25.288			-2.810
250205.000			-25.287			-2.810
250304.000			-25.287			-2.810
250404.000			-25.286			-2.810
250505.000			-25.286			-2.810
250603.000			-25.286			-2.810
250704.000			-25.286			-2.810
250805.000			-25.285			-2.809
250904.000			-25.284			-2.809
251004.000			-25.284			-2.809
251105.000			-25.285			-2.809
251204.000			-25.284			-2.809
251304.000			-25.285			-2.809
251405.000			-25.285			-2.809
251503.000			-25.283			-2.809
251605.000			-25.284			-2.809
251704.000			-25.284			-2.809
251804.000			-25.282			-2.809
251905.000			-25.282			-2.809
252004.000			-25.283			-2.809
252104.000			-25.282			-2.809
252205.000			-25.282			-2.809
252304.000			-25.282			-2.809
252403.000			-25.281			-2.809
252505.000			-25.281			-2.809
252604.000			-25.281			-2.809
252704.000			-25.281			-2.809
252805.000			-25.282			-2.809
252904.000			-25.281			-2.809
253004.000			-25.279			-2.809
253104.000			-25.280			-2.809
253204.000			-25.280			-2.809
253303.000			-25.279			-2.809
253405.000			-25.279			-2.809
253504.000			-25.279			-2.809
253604.000			-25.279			-2.809
253705.000			-25.278			-2.809
253804.000			-25.279			-2.809
253904.000			-25.278			-2.809
254004.000			-25.277			-2.809
254104.000			-25.278			-2.809
254203.000			-25.277			-2.809
254305.000			-25.277			-2.809
254404.000			-25.277			-2.809
254504.000			-25.275			-2.808
254605.000			-25.276			-2.808
254704.000			-25.276			-2.808
254805.000			-25.276			-2.808
254904.000			-25.275			-2.808
255004.000			-25.275			-2.808
255104.000			-25.275			-2.808
255204.000			-25.274			-2.808
255304.000			-25.275			-2.808
255405.000			-25.276			-2.808
255504.000			-25.275			-2.808
255604.000			-25.274			-2.808
255705.000			-25.274			-2.808
255804.000			-25.274			-2.808
255904.000			-25.272			-2.808
256004.000			-25.272			-2.808
256104.000			-25.271			-2.808
256204.000			-25.272			-2.808
256305.000			-25.271			-2.808
256404.000			-25.271			-2.808
256504.000			-25.271			-2.808
256605.000			-25.271			-2.808
256704.000			-25.271			-2.808
256804.000			-25.271			-2.808
256904.000			-25.271			-2.808
257004.000			-25.270			-2.808
257104.000			-25.270			-2.808
257205.000			-25.270			-2.808
257304.000			-25.270			-2.808
257404.000			-25.268			-2.808
257505.000			-25.268			-2.808
257604.000			-25.268			-2.808
257704.000			-25.269			-2.808
257803.000			-25.268			-2.808
257904.000			-25.269			-2.808
258005.000			-25.268			-2.808
258104.000			-25.268			-2.808
258204.000			-25.268			-2.808
258305.000			-25.268			-2.808
258404.000			-25.267			-2.807
258504.000			-25.267			-2.807
258605.000			-25.267			-2.807
258703.000			-25.267			-2.807
258804.000			-25.267			-2.807
258904.000			-25.266			-2.807
259004.000			-25.265			-2.807
259104.000			-25.265			-2.807
259205.000			-25.266			-2.807
259304.000			-25.266			-2.807
259404.000			-25.265			-2.807
259505.000			-25.265			-2.807
259603.000			-25.265			-2.807
259704.000			-25.265			-2.807
259804.000			-25.265			-2.807
259904.000			-25.265			-2.807
260004.000			-25.264			-2.807
260105.000			-25.263			-2.807
260204.000			-25.262			-2.807
260304.000			-25.264			-2.807
260405.000			-25.263			-2.807
260503.000			-25.261			-2.807
260604.000			-25.263			-2.807
260705.000			-25.263			-2.807
260804.000			-25.262			-2.807
260904.000			-25.262			-2.807
261004.000			-25.262			-2.807
261104.000			-25.261			-2.807
261205.000			-25.260			-2.807
261304.000			-25.258			-2.806
261403.000			-25.260			-2.807
261505.000			-25.259			-2.807
261604.000			-25.259			-2.807
261704.000			-25.260			-2.807
261805.000			-25.260			-2.807
261904.000			-25.259			-2.807
262004.000			-25.259			-2.807
262105.000			-25.259			-2.807
262204.000			-25.258			-2.806
262303.000			-25.258			-2.806
262405.000			-25.260			-2.807
262504.000			-25.259			-2.807
262604.000			-25.259			-2.807
262705.000			-25.259			-2.807
262804.000			-25.258			-2.806
262904.000			-25.256			-2.806
263005.000			-25.257			-2.806
263104.000			-25.255			-2.806
263203.000			-25.255			-2.806
263305.000			-25.256			-2.806
263404.000			-25.256			-2.806
263504.000			-25.255			-2.806
263605.000			-25.256			-2.806
263704.000			-25.255			-2.806
263804.000			-25.255			-2.806
263905.000			-25.255			-2.806
264004.000			-25.254			-2.806
264103.000			-25.252			-2.806
264205.000			-25.253			-2.806
264304.000			-25.253			-2.806
264405.000			-25.252			-2.806
264504.000			-25.253			-2.806
264604.000			-25.254			-2.806
264705.000			-25.253			-2.806
264804.000			-25.252			-2.806
264904.000			-25.252			-2.806
265004.000			-25.252			-2.806
265104.000			-25.253			-2.806
265204.000			-25.252			-2.806
265305.000			-25.251			-2.806
265404.000			-25.251			-2.806
265504.000			-25.250			-2.806
265605.000			-25.250			-2.806
265704.000			-25.250			-2.806
265804.000			-25.250			-2.806
265904.000			-25.250			-2.806
266004.000			-25.249			-2.805
266104.000			-25.249			-2.805
266205.000			-25.249			-2.805
266304.000			-25.248			-2.805
266404.000			-25.249			-2.805
266505.000			-25.249			-2.805
266603.000			-25.249			-2.805
266704.000			-25.248			-2.805
266804.000			-25.248			-2.805
266904.000			-25.247			-2.805
267004.000			-25.247			-2.805
267105.000			-25.247			-2.805
267204.000			-25.247			-2.805
267304.000			-25.247			-2.805
267405.000			-25.245			-2.805
267503.000			-25.245			-2.805
267605.000			-25.246			-2.805
267703.000			-25.247			-2.805
267804.000			-25.246			-2.805
267905.000			-25.246			-2.805
268004.000			-25.245			-2.805
268104.000			-25.245			-2.805
268205.000			-25.245			-2.805
268304.000			-25.244			-2.805
268403.000			-25.244			-2.805
268505.000			-25.244			-2.805
268603.000			-25.245			-2.805
268704.000			-25.244			-2.805
268805.000			-25.243			-2.805
268904.000			-25.243			-2.805
269004.000			-25.242			-2.805
269105.000			-25.242			-2.805
269204.000			-25.241			-2.805
269303.000			-25.240			-2.804
269405.000			-25.241			-2.805
269503.000			-25.242			-2.805
269604.000			-25.242			-2.805
269705.000			-25.242			-2.805
269804.000			-25.241			-2.805
269904.000			-25.242			-2.805
270005.000			-25.240			-2.804
270104.000			-25.240			-2.804
270203.000			-25.241			-2.805
270305.000			-25.239			-2.804
270404.000			-25.239			-2.804
270504.000			-25.240			-2.804
270605.000			-25.239			-2.804
270704.000			-25.238			-2.804
270805.000			-25.239			-2.804
270904.000			-25.239			-2.804
271004.000			-25.237			-2.804
271104.000			-25.237			-2.804
271204.000			-25.237			-2.804
271303.000			-25.237			-2.804
271405.000			-25.237			-2.804
271504.000			-25.236			-2.804
271604.000			-25.236			-2.804
271705.000			-25.236			-2.804
271804.000			-25.236			-2.804
271904.000			-25.235			-2.804
272004.000			-25.235			-2.804
272104.000			-25.235			-2.804
272204.000			-25.234			-2.804
272305.000			-25.234			-2.804
272404.000			-25.235			-2.804
272504.000			-25.234			-2.804
272605.000			-25.234			-2.804
272704.000			-25.234			-2.804
272804.000			-25.233			-2.804
272904.000			-25.232			-2.804
273004.000			-25.231			-2.803
273104.000			-25.233			-2.804
273205.000			-25.232			-2.804
273304.000			-25.232			-2.804
273404.000			-25.232			-2.804
273505.000			-25.232			-2.804
273604.000			-25.232			-2.804
273704.000			-25.232			-2.804
273803.000			-25.232			-2.804
273904.000			-25.231			-2.803
274005.000			-25.231			-2.803
274104.000			-25.231			-2.803
274204.000			-25.230			-2.803
274305.000			-25.230			-2.803
274404.000			-25.228			-2.803
274503.000			-25.228			-2.803
274605.000			-25.229			-2.803
274704.000			-25.229			-2.803
274804.000			-25.229			-2.803
274905.000			-25.228			-2.803
275004.000			-25.229			-2.803
275104.000			-25.229			-2.803
275205.000			-25.228			-2.803
275304.000			-25.227			-2.803
275403.000			-25.227			-2.803
275505.000			-25.227			-2.803
275604.000			-25.227			-2.803
275704.000			-25.227			-2.803
275805.000			-25.226			-2.803
275904.000			-25.226			-2.803
276004.000			-25.226			-2.803
276105.000			-25.226			-2.803
276204.000			-25.226			-2.803
276303.000			-25.226			-2.803
276405.000			-25.225			-2.803
276504.000			-25.225			-2.803
276604.000			-25.225			-2.803
276705.000			-25.225			-2.803
276804.000			-25.224			-2.803
276904.000			-25.224			-2.803
277004.000			-25.224			-2.803
277104.000			-25.223			-2.803
277203.000			-25.223			-2.803
277304.000			-25.223			-2.803
277403.000			-25.222			-2.802
277505.000			-25.223			-2.803
277604.000			-25.223			-2.803
277704.000			-25.222			-2.802
277805.000			-25.221			-2.802
277904.000			-25.221			-2.802
278004.000			-25.220			-2.802
278104.000			-25.220			-2.802
278204.000			-25.221			-2.802
278304.000			-25.221			-2.802
278405.000			-25.222			-2.802
278504.000			-25.221			-2.802
278604.000			-25.220			-2.802
278705.000			-25.220			-2.802
278804.000			-25.220			-2.802
278904.000			-25.220			-2.802
279004.000			-25.219			-2.802
279104.000			-25.220			-2.802
279204.000			-25.219			-2.802
279305.000			-25.218			-2.802
279404.000			-25.219			-2.802
279504.000			-25.219			-2.802
279605.000			-25.218			-2.802
279704.000			-25.217			-2.802
279804.000			-25.218			-2.802
279904.000			-25.218			-2.802
280004.000			-25.218			-2.802
280104.000			-25.217			-2.802
280204.000			-25.217			-2.802
280304.000			-25.217			-2.802
280405.000			-25.217			-2.802
280504.000			-25.218			-2.802
280604.000			-25.217			-2.802
280705.000			-25.217			-2.802
280803.000			-25.217			-2.802
280904.000			-25.215			-2.802
281005.000			-25.215			-2.802
281104.000			-25.214			-2.802
281204.000			-25.214			-2.802
281305.000			-25.214			-2.802
281404.000			-25.213			-2.801
281504.000			-25.213			-2.801
281605.000			-25.213			-2.801
281703.000			-25.212			-2.801
281804.000			-25.213			-2.801
281905.000			-25.213			-2.801
282004.000			-25.212			-2.801
282104.000			-25.212			-2.801
282205.000			-25.212			-2.801
282304.000			-25.213			-2.801
282403.000			-25.212			-2.801
282505.000			-25.211			-2.801
282604.000			-25.212			-2.801
282704.000			-25.212			-2.801
282805.000			-25.211			-2.801
282904.000			-25.211			-2.801
283004.000			-25.211			-2.801
283105.000			-25.211			-2.801
283204.000			-25.211			-2.801
283303.000			-25.210			-2.801
283405.000			-25.210			-2.801
283504.000			-25.209			-2.801
283605.000			-25.210			-2.801
283704.000			-25.210			-2.801
283804.000			-25.209			-2.801
283905.000			-25.209			-2.801
284004.000			-25.208			-2.801
284104.000			-25.208			-2.801
284204.000			-25.208			-2.801
284304.000			-25.207			-2.801
284404.000			-25.208			-2.801
284505.000			-25.208			-2.801
284604.000			-25.208			-2.801
284704.000			-25.206			-2.801
284805.000			-25.207			-2.801
284904.000			-25.207			-2.801
285004.000			-25.207			-2.801
285104.000			-25.206			-2.801
285204.000			-25.206			-2.801
285304.000			-25.206			-2.801
285405.000			-25.206			-2.801
285504.000			-25.204			-2.800
285604.000			-25.203			-2.800
285705.000			-25.204			-2.800
285803.000			-25.205			-2.801
285904.000			-25.205			-2.801
286004.000			-25.204			-2.800
286104.000			-25.205			-2.801
286204.000			-25.203			-2.800
286305.000			-25.204			-2.800
286404.000			-25.204			-2.800
286504.000			-25.203			-2.800
286605.000			-25.202			-2.800
286703.000			-25.201			-2.800
286805.000			-25.202			-2.800
286903.000			-25.203			-2.800
287004.000			-25.203			-2.800
287105.000			-25.202			-2.800
287204.000			-25.202			-2.800
287304.000			-25.202			-2.800
287405.000			-25.201			-2.800
287504.000			-25.201			-2.800
287603.000			-25.201			-2.800
287705.000			-25.200			-2.800
287804.000			-25.201			-2.800
287904.000			-25.201			-2.800
288005.000			-25.201			-2.800
288104.000			-25.200			-2.800
288204.000			-25.201			-2.800
288305.000			-25.200			-2.800
288404.000			-25.199			-2.800
288503.000			-25.200			-2.800
288605.000			-25.199			-2.800
288704.000			-25.198			-2.800
288804.000			-25.198			-2.800
288905.000			-25.197			-2.800
289004.000			-25.197			-2.800
289104.000			-25.196			-2.800
289205.000			-25.196			-2.800
289304.000			-25.197			-2.800
289404.000			-25.197			-2.800
289505.000			-25.197			-2.800
289603.000			-25.197			-2.800
289704.000			-25.197			-2.800
289805.000			-25.196			-2.800
289904.000			-25.195			-2.799
290005.000			-25.195			-2.799
290104.000			-25.195			-2.799
290204.000			-25.196			-2.800
290305.000			-25.194			-2.799
290404.000			-25.195			-2.799
290503.000			-25.195			-2.799
290605.000			-25.195			-2.799
290704.000			-25.194			-2.799
290804.000			-25.194			-2.799
290905.000			-25.194			-2.799
291004.000			-25.193			-2.799
291104.000			-25.193			-2.799
291205.000			-25.193			-2.799
291304.000			-25.192			-2.799
291403.000			-25.191			-2.799
291505.000			-25.192			-2.799
291604.000			-25.192			-2.799
291704.000			-25.191			-2.799
291805.000			-25.193			-2.799
291904.000			-25.194			-2.799
292004.000			-25.195			-2.799
292105.000			-25.194			-2.799
292204.000			-25.193			-2.799
292303.000			-25.192			-2.799
292405.000			-25.193			-2.799
292504.000			-25.192			-2.799
292604.000			-25.191			-2.799
292705.000			-25.190			-2.799
292804.000			-25.190			-2.799
292904.000			-25.190			-2.799
293004.000			-25.190			-2.799
293104.000			-25.190			-2.799
293203.000			-25.189			-2.799
293304.000			-25.189			-2.799
293403.000			-25.189			-2.799
293505.000			-25.188			-2.799
293604.000			-25.188			-2.799
293704.000			-25.188			-2.799
293805.000			-25.187			-2.799
293904.000			-25.187			-2.799
294004.000			-25.187			-2.799
294104.000			-25.187			-2.799
294204.000			-25.188			-2.799
294303.000			-25.188			-2.799
294405.000			-25.188			-2.799
294504.000			-25.187			-2.799
294604.000			-25.188			-2.799
294705.000			-25.188			-2.799
294804.000			-25.188			-2.799
294904.000			-25.187			-2.799
295005.000			-25.187			-2.799
295104.000			-25.185			-2.798
295203.000			-25.184			-2.798
295305.000			-25.184			-2.798
295404.000			-25.184			-2.798
295504.000			-25.184			-2.798
295605.000			-25.184			-2.798
295704.000			-25.184			-2.798
295804.000			-25.183			-2.798
295905.000			-25.183			-2.798
296004.000			-25.184			-2.798
296103.000			-25.185			-2.798
296205.000			-25.184			-2.798
296304.000			-25.184			-2.798
296405.000			-25.182			-2.798
296504.000			-25.183			-2.798
296604.000			-25.182			-2.798
296705.000			-25.182			-2.798
296804.000			-25.183			-2.798
296904.000			-25.181			-2.798
297004.000			-25.182			-2.798
297104.000			-25.181			-2.798
297204.000			-25.181			-2.798
297305.000			-25.180			-2.798
297404.000			-25.180			-2.798
297504.000			-25.179			-2.798
297605.000			-25.180			-2.798
297704.000			-25.180			-2.798
297804.000			-25.180			-2.798
297904.000			-25.180			-2.798
298004.000			-25.180			-2.798
298103.000			-25.180			-2.798
298205.000			-25.179			-2.798
298304.000			-25.179			-2.798
298404.000			-25.178			-2.798
298505.000			-25.179			-2.798
298604.000			-25.178			-2.798
298704.000			-25.177			-2.797
298804.000			-25.177			-2.797
298904.000			-25.178			-2.798
299003.000			-25.177			-2.797
299105.000			-25.176			-2.797
299204.000			-25.177			-2.797
299304.000			-25.176			-2.797
299405.000			-25.177			-2.797
299504.000			-25.176			-2.797
299605.000			-25.176			-2.797
299704.000			-25.176			-2.797
299804.000			-25.176			-2.797
299904.000			-25.177			-2.797
