# Acquired on 26/01/2024 10:09:32 
# SPIDER: Creep_3mm_HM077x145x38AB-2
# CREEP MEASUREMENT

# time [ms]		force [N]		stiffness [N/mm]
0.000			-10.490			-3.497
105.000			-11.221			-3.740
204.000			-11.438			-3.813
304.000			-11.413			-3.804
405.000			-11.373			-3.791
504.000			-11.333			-3.778
605.000			-11.316			-3.772
704.000			-11.300			-3.767
803.000			-11.287			-3.762
905.000			-11.274			-3.758
1004.000			-11.262			-3.754
1104.000			-11.252			-3.751
1205.000			-11.232			-3.744
1303.000			-11.224			-3.741
1404.000			-11.216			-3.739
1505.000			-11.208			-3.736
1604.000			-11.200			-3.733
1704.000			-11.193			-3.731
1805.000			-11.186			-3.729
1904.000			-11.173			-3.724
2003.000			-11.166			-3.722
2105.000			-11.160			-3.720
2204.000			-11.155			-3.718
2304.000			-11.149			-3.716
2405.000			-11.143			-3.714
2503.000			-11.139			-3.713
2604.000			-11.133			-3.711
2705.000			-11.123			-3.708
2804.000			-11.118			-3.706
2904.000			-11.113			-3.704
3004.000			-11.109			-3.703
3104.000			-11.105			-3.702
3204.000			-11.102			-3.701
3305.000			-11.098			-3.699
3404.000			-11.089			-3.696
3504.000			-11.085			-3.695
3605.000			-11.082			-3.694
3703.000			-11.078			-3.693
3805.000			-11.074			-3.691
3904.000			-11.070			-3.690
4004.000			-11.067			-3.689
4105.000			-11.060			-3.687
4204.000			-11.057			-3.686
4304.000			-11.054			-3.685
4405.000			-11.052			-3.684
4504.000			-11.049			-3.683
4604.000			-11.046			-3.682
4705.000			-11.043			-3.681
4804.000			-11.037			-3.679
4903.000			-11.035			-3.678
5005.000			-11.032			-3.677
5104.000			-11.029			-3.676
5204.000			-11.026			-3.675
5305.000			-11.023			-3.674
5403.000			-11.021			-3.674
5504.000			-11.019			-3.673
5605.000			-11.014			-3.671
5704.000			-11.011			-3.670
5804.000			-11.008			-3.669
5905.000			-11.006			-3.669
6004.000			-11.003			-3.668
6103.000			-11.001			-3.667
6205.000			-10.998			-3.666
6304.000			-10.994			-3.665
6404.000			-10.991			-3.664
6505.000			-10.989			-3.663
6603.000			-10.987			-3.662
6704.000			-10.985			-3.662
6805.000			-10.984			-3.661
6904.000			-10.982			-3.661
7005.000			-10.977			-3.659
7104.000			-10.976			-3.659
7204.000			-10.974			-3.658
7304.000			-10.971			-3.657
7404.000			-10.969			-3.656
7504.000			-10.967			-3.656
7605.000			-10.966			-3.655
7704.000			-10.964			-3.655
7804.000			-10.958			-3.653
7905.000			-10.957			-3.652
8003.000			-10.956			-3.652
8104.000			-10.954			-3.651
8205.000			-10.952			-3.651
8304.000			-10.950			-3.650
8404.000			-10.948			-3.649
8504.000			-10.945			-3.648
8604.000			-10.943			-3.648
8704.000			-10.941			-3.647
8805.000			-10.940			-3.647
8904.000			-10.938			-3.646
9004.000			-10.936			-3.645
9105.000			-10.934			-3.645
9203.000			-10.931			-3.644
9304.000			-10.929			-3.643
9405.000			-10.927			-3.642
9504.000			-10.925			-3.642
9604.000			-10.923			-3.641
9705.000			-10.921			-3.640
9804.000			-10.919			-3.640
9903.000			-10.914			-3.638
10005.000			-10.913			-3.638
10104.000			-10.912			-3.637
10205.000			-10.912			-3.637
10304.000			-10.910			-3.637
10404.000			-10.909			-3.636
10505.000			-10.908			-3.636
10603.000			-10.907			-3.636
10704.000			-10.904			-3.635
10805.000			-10.902			-3.634
10904.000			-10.901			-3.634
11004.000			-10.900			-3.633
11104.000			-10.899			-3.633
11204.000			-10.897			-3.632
11304.000			-10.896			-3.632
11405.000			-10.893			-3.631
11504.000			-10.892			-3.631
11604.000			-10.891			-3.630
11705.000			-10.889			-3.630
11803.000			-10.888			-3.629
11904.000			-10.887			-3.629
12005.000			-10.885			-3.628
12104.000			-10.884			-3.628
12204.000			-10.882			-3.627
12305.000			-10.880			-3.627
12404.000			-10.879			-3.626
12503.000			-10.877			-3.626
12605.000			-10.877			-3.626
12704.000			-10.875			-3.625
12804.000			-10.874			-3.625
12905.000			-10.872			-3.624
13004.000			-10.870			-3.623
13104.000			-10.870			-3.623
13204.000			-10.869			-3.623
13304.000			-10.867			-3.622
13405.000			-10.867			-3.622
13504.000			-10.865			-3.622
13604.000			-10.862			-3.621
13705.000			-10.862			-3.621
13804.000			-10.860			-3.620
13903.000			-10.858			-3.619
14005.000			-10.857			-3.619
14104.000			-10.856			-3.619
14204.000			-10.855			-3.618
14305.000			-10.852			-3.617
14404.000			-10.851			-3.617
14504.000			-10.849			-3.616
14604.000			-10.848			-3.616
14704.000			-10.849			-3.616
14804.000			-10.848			-3.616
14905.000			-10.846			-3.615
15004.000			-10.844			-3.615
15103.000			-10.844			-3.615
15205.000			-10.843			-3.614
15304.000			-10.841			-3.614
15404.000			-10.840			-3.613
15505.000			-10.839			-3.613
15604.000			-10.839			-3.613
15704.000			-10.837			-3.612
15804.000			-10.835			-3.612
15904.000			-10.834			-3.611
16004.000			-10.832			-3.611
16105.000			-10.831			-3.610
16204.000			-10.830			-3.610
16304.000			-10.829			-3.610
16405.000			-10.828			-3.609
16503.000			-10.827			-3.609
16605.000			-10.825			-3.608
16704.000			-10.824			-3.608
16804.000			-10.823			-3.608
16905.000			-10.822			-3.607
17004.000			-10.821			-3.607
17104.000			-10.821			-3.607
17204.000			-10.819			-3.606
17304.000			-10.817			-3.606
17404.000			-10.816			-3.605
17505.000			-10.816			-3.605
17604.000			-10.816			-3.605
17703.000			-10.814			-3.605
17805.000			-10.812			-3.604
17904.000			-10.812			-3.604
18004.000			-10.810			-3.603
18105.000			-10.809			-3.603
18204.000			-10.808			-3.603
18304.000			-10.807			-3.602
18404.000			-10.807			-3.602
18504.000			-10.806			-3.602
18604.000			-10.806			-3.602
18705.000			-10.803			-3.601
18804.000			-10.802			-3.601
18904.000			-10.802			-3.601
19005.000			-10.800			-3.600
19103.000			-10.798			-3.599
19204.000			-10.798			-3.599
19305.000			-10.798			-3.599
19404.000			-10.797			-3.599
19504.000			-10.796			-3.599
19605.000			-10.795			-3.598
19704.000			-10.794			-3.598
19803.000			-10.794			-3.598
19904.000			-10.793			-3.598
20004.000			-10.792			-3.597
20105.000			-10.791			-3.597
20204.000			-10.790			-3.597
20304.000			-10.789			-3.596
20405.000			-10.788			-3.596
20503.000			-10.786			-3.595
20604.000			-10.787			-3.596
20705.000			-10.786			-3.595
20804.000			-10.784			-3.595
20904.000			-10.783			-3.594
21005.000			-10.782			-3.594
21104.000			-10.781			-3.594
21203.000			-10.780			-3.593
21305.000			-10.779			-3.593
21404.000			-10.779			-3.593
21504.000			-10.778			-3.593
21605.000			-10.776			-3.592
21703.000			-10.775			-3.592
21804.000			-10.775			-3.592
21905.000			-10.774			-3.591
22004.000			-10.773			-3.591
22104.000			-10.773			-3.591
22205.000			-10.773			-3.591
22304.000			-10.770			-3.590
22403.000			-10.770			-3.590
22505.000			-10.769			-3.590
22604.000			-10.769			-3.590
22704.000			-10.767			-3.589
22805.000			-10.766			-3.589
22904.000			-10.765			-3.588
23005.000			-10.765			-3.588
23103.000			-10.765			-3.588
23204.000			-10.763			-3.588
23305.000			-10.762			-3.587
23404.000			-10.761			-3.587
23504.000			-10.761			-3.587
23605.000			-10.760			-3.587
23704.000			-10.759			-3.586
23803.000			-10.758			-3.586
23905.000			-10.757			-3.586
24004.000			-10.756			-3.585
24104.000			-10.756			-3.585
24205.000			-10.755			-3.585
24303.000			-10.755			-3.585
24404.000			-10.754			-3.585
24505.000			-10.752			-3.584
24604.000			-10.751			-3.584
24704.000			-10.750			-3.583
24805.000			-10.749			-3.583
24904.000			-10.749			-3.583
25003.000			-10.748			-3.583
25105.000			-10.748			-3.583
25204.000			-10.748			-3.583
25304.000			-10.746			-3.582
25405.000			-10.746			-3.582
25504.000			-10.745			-3.582
25604.000			-10.744			-3.581
25704.000			-10.742			-3.581
25804.000			-10.742			-3.581
25904.000			-10.742			-3.581
26005.000			-10.740			-3.580
26104.000			-10.740			-3.580
26205.000			-10.740			-3.580
26304.000			-10.740			-3.580
26403.000			-10.738			-3.579
26505.000			-10.738			-3.579
26604.000			-10.737			-3.579
26704.000			-10.734			-3.578
26805.000			-10.734			-3.578
26904.000			-10.734			-3.578
27004.000			-10.733			-3.578
27104.000			-10.732			-3.577
27204.000			-10.732			-3.577
27304.000			-10.731			-3.577
27405.000			-10.731			-3.577
27504.000			-10.729			-3.576
27603.000			-10.729			-3.576
27705.000			-10.728			-3.576
27804.000			-10.728			-3.576
27904.000			-10.727			-3.576
28005.000			-10.726			-3.575
28104.000			-10.725			-3.575
28204.000			-10.724			-3.575
28304.000			-10.724			-3.575
28404.000			-10.723			-3.574
28504.000			-10.722			-3.574
28605.000			-10.723			-3.574
28704.000			-10.722			-3.574
28804.000			-10.721			-3.574
28905.000			-10.720			-3.573
29003.000			-10.720			-3.573
29104.000			-10.719			-3.573
29205.000			-10.717			-3.572
29304.000			-10.716			-3.572
29405.000			-10.716			-3.572
29504.000			-10.716			-3.572
29604.000			-10.716			-3.572
29704.000			-10.715			-3.572
29804.000			-10.714			-3.571
29904.000			-10.713			-3.571
30005.000			-10.713			-3.571
30104.000			-10.712			-3.571
30203.000			-10.712			-3.571
30305.000			-10.711			-3.570
30404.000			-10.709			-3.570
30504.000			-10.709			-3.570
30605.000			-10.708			-3.569
30704.000			-10.708			-3.569
30804.000			-10.708			-3.569
30904.000			-10.707			-3.569
31004.000			-10.707			-3.569
31104.000			-10.706			-3.569
31205.000			-10.705			-3.568
31304.000			-10.705			-3.568
31404.000			-10.704			-3.568
31505.000			-10.703			-3.568
31603.000			-10.702			-3.567
31704.000			-10.703			-3.568
31805.000			-10.701			-3.567
31904.000			-10.700			-3.567
32004.000			-10.699			-3.566
32104.000			-10.699			-3.566
32204.000			-10.699			-3.566
32304.000			-10.699			-3.566
32405.000			-10.699			-3.566
32504.000			-10.698			-3.566
32605.000			-10.695			-3.565
32704.000			-10.694			-3.565
32803.000			-10.695			-3.565
32905.000			-10.694			-3.565
33004.000			-10.693			-3.564
33104.000			-10.692			-3.564
33205.000			-10.693			-3.564
33304.000			-10.692			-3.564
33404.000			-10.690			-3.563
33504.000			-10.690			-3.563
33604.000			-10.691			-3.564
33704.000			-10.690			-3.563
33805.000			-10.689			-3.563
33904.000			-10.687			-3.562
34004.000			-10.687			-3.562
34105.000			-10.687			-3.562
34203.000			-10.686			-3.562
34304.000			-10.685			-3.562
34405.000			-10.685			-3.562
34504.000			-10.685			-3.562
34604.000			-10.684			-3.561
34705.000			-10.683			-3.561
34804.000			-10.682			-3.561
34903.000			-10.682			-3.561
35005.000			-10.680			-3.560
35104.000			-10.681			-3.560
35204.000			-10.681			-3.560
35305.000			-10.680			-3.560
35403.000			-10.679			-3.560
35504.000			-10.679			-3.560
35605.000			-10.679			-3.560
35704.000			-10.678			-3.559
35805.000			-10.677			-3.559
35904.000			-10.677			-3.559
36004.000			-10.676			-3.559
36104.000			-10.676			-3.559
36204.000			-10.676			-3.559
36304.000			-10.676			-3.559
36405.000			-10.674			-3.558
36504.000			-10.672			-3.557
36604.000			-10.672			-3.557
36705.000			-10.672			-3.557
36803.000			-10.672			-3.557
36904.000			-10.671			-3.557
37005.000			-10.670			-3.557
37104.000			-10.671			-3.557
37204.000			-10.671			-3.557
37305.000			-10.669			-3.556
37404.000			-10.668			-3.556
37503.000			-10.669			-3.556
37605.000			-10.668			-3.556
37704.000			-10.667			-3.556
37804.000			-10.667			-3.556
37905.000			-10.666			-3.555
38004.000			-10.665			-3.555
38104.000			-10.664			-3.555
38204.000			-10.663			-3.554
38304.000			-10.663			-3.554
38404.000			-10.663			-3.554
38505.000			-10.662			-3.554
38604.000			-10.662			-3.554
38703.000			-10.661			-3.554
38805.000			-10.661			-3.554
38904.000			-10.661			-3.554
39005.000			-10.660			-3.553
39104.000			-10.660			-3.553
39204.000			-10.660			-3.553
39305.000			-10.659			-3.553
39403.000			-10.658			-3.553
39504.000			-10.657			-3.552
39605.000			-10.656			-3.552
39704.000			-10.656			-3.552
39804.000			-10.657			-3.552
39905.000			-10.656			-3.552
40004.000			-10.656			-3.552
40103.000			-10.654			-3.551
40205.000			-10.653			-3.551
40304.000			-10.652			-3.551
40404.000			-10.653			-3.551
40505.000			-10.653			-3.551
40604.000			-10.651			-3.550
40704.000			-10.651			-3.550
40804.000			-10.651			-3.550
40904.000			-10.650			-3.550
41004.000			-10.650			-3.550
41105.000			-10.650			-3.550
41204.000			-10.648			-3.549
41304.000			-10.648			-3.549
41405.000			-10.647			-3.549
41503.000			-10.647			-3.549
41604.000			-10.647			-3.549
41705.000			-10.646			-3.549
41804.000			-10.646			-3.549
41904.000			-10.645			-3.548
42004.000			-10.644			-3.548
42104.000			-10.645			-3.548
42205.000			-10.645			-3.548
42304.000			-10.644			-3.548
42404.000			-10.644			-3.548
42505.000			-10.643			-3.548
42604.000			-10.642			-3.547
42703.000			-10.641			-3.547
42805.000			-10.640			-3.547
42904.000			-10.639			-3.546
43004.000			-10.640			-3.547
43105.000			-10.640			-3.547
43204.000			-10.640			-3.547
43304.000			-10.638			-3.546
43404.000			-10.638			-3.546
43504.000			-10.637			-3.546
43604.000			-10.637			-3.546
43705.000			-10.636			-3.545
43804.000			-10.636			-3.545
43904.000			-10.635			-3.545
44005.000			-10.634			-3.545
44103.000			-10.635			-3.545
44204.000			-10.634			-3.545
44305.000			-10.633			-3.544
44404.000			-10.632			-3.544
44504.000			-10.633			-3.544
44604.000			-10.632			-3.544
44704.000			-10.632			-3.544
44804.000			-10.631			-3.544
44905.000			-10.631			-3.544
45004.000			-10.630			-3.543
45104.000			-10.630			-3.543
45205.000			-10.630			-3.543
45303.000			-10.629			-3.543
45405.000			-10.628			-3.543
45504.000			-10.628			-3.543
45604.000			-10.628			-3.543
45705.000			-10.628			-3.543
45804.000			-10.628			-3.543
45904.000			-10.626			-3.542
46004.000			-10.626			-3.542
46104.000			-10.625			-3.542
46204.000			-10.625			-3.542
46305.000			-10.625			-3.542
46404.000			-10.624			-3.541
46504.000			-10.623			-3.541
46605.000			-10.623			-3.541
46703.000			-10.623			-3.541
46804.000			-10.622			-3.541
46905.000			-10.622			-3.541
47004.000			-10.621			-3.540
47104.000			-10.620			-3.540
47204.000			-10.620			-3.540
47304.000			-10.620			-3.540
47404.000			-10.620			-3.540
47505.000			-10.620			-3.540
47604.000			-10.619			-3.540
47704.000			-10.618			-3.539
47805.000			-10.619			-3.540
47903.000			-10.618			-3.539
48004.000			-10.617			-3.539
48105.000			-10.616			-3.539
48204.000			-10.615			-3.538
48304.000			-10.615			-3.538
48405.000			-10.615			-3.538
48504.000			-10.616			-3.539
48603.000			-10.615			-3.538
48704.000			-10.614			-3.538
48804.000			-10.614			-3.538
48905.000			-10.614			-3.538
49004.000			-10.613			-3.538
49104.000			-10.613			-3.538
49205.000			-10.612			-3.537
49303.000			-10.611			-3.537
49404.000			-10.610			-3.537
49505.000			-10.610			-3.537
49604.000			-10.610			-3.537
49704.000			-10.610			-3.537
49804.000			-10.610			-3.537
49904.000			-10.610			-3.537
50003.000			-10.609			-3.536
50105.000			-10.609			-3.536
50204.000			-10.609			-3.536
50304.000			-10.608			-3.536
50405.000			-10.606			-3.535
50503.000			-10.606			-3.535
50604.000			-10.606			-3.535
50705.000			-10.606			-3.535
50804.000			-10.605			-3.535
50904.000			-10.605			-3.535
51005.000			-10.604			-3.535
51104.000			-10.604			-3.535
51203.000			-10.603			-3.534
51305.000			-10.602			-3.534
51404.000			-10.603			-3.534
51504.000			-10.603			-3.534
51605.000			-10.603			-3.534
51703.000			-10.602			-3.534
51805.000			-10.601			-3.534
51904.000			-10.600			-3.533
52004.000			-10.601			-3.534
52105.000			-10.601			-3.534
52204.000			-10.601			-3.534
52304.000			-10.599			-3.533
52404.000			-10.599			-3.533
52504.000			-10.598			-3.533
52604.000			-10.598			-3.533
52705.000			-10.598			-3.533
52804.000			-10.597			-3.532
52904.000			-10.597			-3.532
53005.000			-10.597			-3.532
53103.000			-10.596			-3.532
53204.000			-10.596			-3.532
53305.000			-10.596			-3.532
53404.000			-10.596			-3.532
53504.000			-10.594			-3.531
53604.000			-10.593			-3.531
53704.000			-10.594			-3.531
53803.000			-10.593			-3.531
53905.000			-10.593			-3.531
54004.000			-10.592			-3.531
54104.000			-10.593			-3.531
54205.000			-10.592			-3.531
54303.000			-10.592			-3.531
54404.000			-10.590			-3.530
54504.000			-10.590			-3.530
54604.000			-10.590			-3.530
54704.000			-10.590			-3.530
54805.000			-10.589			-3.530
54904.000			-10.590			-3.530
55005.000			-10.589			-3.530
55104.000			-10.589			-3.530
55203.000			-10.588			-3.529
55305.000			-10.587			-3.529
55404.000			-10.587			-3.529
55504.000			-10.587			-3.529
55605.000			-10.587			-3.529
55704.000			-10.586			-3.529
55804.000			-10.585			-3.528
55904.000			-10.584			-3.528
56004.000			-10.584			-3.528
56104.000			-10.585			-3.528
56205.000			-10.583			-3.528
56304.000			-10.583			-3.528
56404.000			-10.583			-3.528
56505.000			-10.583			-3.528
56603.000			-10.582			-3.527
56704.000			-10.582			-3.527
56805.000			-10.582			-3.527
56904.000			-10.581			-3.527
57004.000			-10.582			-3.527
57105.000			-10.582			-3.527
57204.000			-10.581			-3.527
57303.000			-10.581			-3.527
57405.000			-10.580			-3.527
57504.000			-10.580			-3.527
57604.000			-10.579			-3.526
57705.000			-10.580			-3.527
57804.000			-10.579			-3.526
57904.000			-10.578			-3.526
58004.000			-10.578			-3.526
58104.000			-10.577			-3.526
58205.000			-10.578			-3.526
58304.000			-10.577			-3.526
58404.000			-10.576			-3.525
58505.000			-10.576			-3.525
58604.000			-10.576			-3.525
58703.000			-10.576			-3.525
58805.000			-10.575			-3.525
58904.000			-10.575			-3.525
59004.000			-10.574			-3.525
59105.000			-10.574			-3.525
59204.000			-10.574			-3.525
59304.000			-10.573			-3.524
59404.000			-10.572			-3.524
59504.000			-10.572			-3.524
59604.000			-10.571			-3.524
59705.000			-10.571			-3.524
59804.000			-10.572			-3.524
59903.000			-10.571			-3.524
60005.000			-10.570			-3.523
60104.000			-10.570			-3.523
60204.000			-10.571			-3.524
60305.000			-10.569			-3.523
60404.000			-10.568			-3.523
60504.000			-10.568			-3.523
60604.000			-10.569			-3.523
60704.000			-10.569			-3.523
60804.000			-10.568			-3.523
60905.000			-10.567			-3.522
61004.000			-10.567			-3.522
61104.000			-10.568			-3.523
61205.000			-10.567			-3.522
61303.000			-10.565			-3.522
61405.000			-10.565			-3.522
61504.000			-10.565			-3.522
61604.000			-10.566			-3.522
61705.000			-10.565			-3.522
61804.000			-10.564			-3.521
61904.000			-10.563			-3.521
62004.000			-10.563			-3.521
62104.000			-10.563			-3.521
62204.000			-10.563			-3.521
62305.000			-10.563			-3.521
62404.000			-10.562			-3.521
62503.000			-10.561			-3.520
62605.000			-10.562			-3.521
62704.000			-10.561			-3.520
62804.000			-10.561			-3.520
62905.000			-10.560			-3.520
63004.000			-10.560			-3.520
63104.000			-10.560			-3.520
63204.000			-10.560			-3.520
63304.000			-10.560			-3.520
63404.000			-10.559			-3.520
63505.000			-10.559			-3.520
63604.000			-10.559			-3.520
63704.000			-10.558			-3.519
63805.000			-10.558			-3.519
63903.000			-10.559			-3.520
64004.000			-10.558			-3.519
64105.000			-10.558			-3.519
64204.000			-10.557			-3.519
64304.000			-10.556			-3.519
64405.000			-10.555			-3.518
64504.000			-10.555			-3.518
64603.000			-10.556			-3.519
64704.000			-10.555			-3.518
64804.000			-10.555			-3.518
64905.000			-10.555			-3.518
65004.000			-10.555			-3.518
65104.000			-10.554			-3.518
65205.000			-10.553			-3.518
65303.000			-10.553			-3.518
65404.000			-10.551			-3.517
65505.000			-10.551			-3.517
65604.000			-10.552			-3.517
65704.000			-10.552			-3.517
65804.000			-10.551			-3.517
65904.000			-10.552			-3.517
66003.000			-10.551			-3.517
66105.000			-10.550			-3.517
66204.000			-10.551			-3.517
66304.000			-10.551			-3.517
66405.000			-10.550			-3.517
66503.000			-10.549			-3.516
66604.000			-10.548			-3.516
66705.000			-10.547			-3.516
66804.000			-10.547			-3.516
66904.000			-10.547			-3.516
67005.000			-10.547			-3.516
67104.000			-10.547			-3.516
67203.000			-10.547			-3.516
67305.000			-10.547			-3.516
67404.000			-10.546			-3.515
67504.000			-10.545			-3.515
67605.000			-10.545			-3.515
67704.000			-10.545			-3.515
67805.000			-10.544			-3.515
67903.000			-10.544			-3.515
68004.000			-10.544			-3.515
68105.000			-10.544			-3.515
68204.000			-10.544			-3.515
68304.000			-10.544			-3.515
68405.000			-10.543			-3.514
68504.000			-10.542			-3.514
68603.000			-10.543			-3.514
68705.000			-10.542			-3.514
68804.000			-10.542			-3.514
68904.000			-10.542			-3.514
69005.000			-10.541			-3.514
69104.000			-10.541			-3.514
69204.000			-10.541			-3.514
69304.000			-10.540			-3.513
69404.000			-10.540			-3.513
69504.000			-10.540			-3.513
69605.000			-10.539			-3.513
69704.000			-10.539			-3.513
69804.000			-10.537			-3.512
69905.000			-10.538			-3.513
70003.000			-10.538			-3.513
70104.000			-10.537			-3.512
70205.000			-10.537			-3.512
70304.000			-10.536			-3.512
70404.000			-10.537			-3.512
70504.000			-10.537			-3.512
70604.000			-10.536			-3.512
70703.000			-10.536			-3.512
70805.000			-10.537			-3.512
70904.000			-10.536			-3.512
71005.000			-10.535			-3.512
71104.000			-10.535			-3.512
71203.000			-10.533			-3.511
71305.000			-10.533			-3.511
71404.000			-10.534			-3.511
71504.000			-10.533			-3.511
71605.000			-10.534			-3.511
71704.000			-10.533			-3.511
71804.000			-10.533			-3.511
71904.000			-10.533			-3.511
72004.000			-10.532			-3.511
72104.000			-10.532			-3.511
72205.000			-10.531			-3.510
72304.000			-10.530			-3.510
72404.000			-10.530			-3.510
72505.000			-10.530			-3.510
72603.000			-10.530			-3.510
72704.000			-10.530			-3.510
72805.000			-10.529			-3.510
72904.000			-10.529			-3.510
73004.000			-10.528			-3.509
73105.000			-10.528			-3.509
73204.000			-10.528			-3.509
73303.000			-10.528			-3.509
73405.000			-10.528			-3.509
73504.000			-10.527			-3.509
73604.000			-10.526			-3.509
73705.000			-10.527			-3.509
73804.000			-10.527			-3.509
73904.000			-10.525			-3.508
74004.000			-10.525			-3.508
74104.000			-10.524			-3.508
74205.000			-10.525			-3.508
74304.000			-10.524			-3.508
74404.000			-10.524			-3.508
74504.000			-10.524			-3.508
74604.000			-10.524			-3.508
74704.000			-10.523			-3.508
74805.000			-10.523			-3.508
74904.000			-10.523			-3.508
75004.000			-10.523			-3.508
75105.000			-10.522			-3.507
75203.000			-10.522			-3.507
75304.000			-10.522			-3.507
75405.000			-10.522			-3.507
75504.000			-10.521			-3.507
75604.000			-10.520			-3.507
75705.000			-10.520			-3.507
75804.000			-10.520			-3.507
75903.000			-10.521			-3.507
76005.000			-10.520			-3.507
76104.000			-10.520			-3.507
76204.000			-10.519			-3.506
76305.000			-10.519			-3.506
76404.000			-10.518			-3.506
76504.000			-10.517			-3.506
76604.000			-10.518			-3.506
76704.000			-10.518			-3.506
76804.000			-10.517			-3.506
76905.000			-10.518			-3.506
77004.000			-10.518			-3.506
77104.000			-10.516			-3.505
77205.000			-10.516			-3.505
77303.000			-10.516			-3.505
77405.000			-10.517			-3.506
77504.000			-10.517			-3.506
77604.000			-10.516			-3.505
77705.000			-10.515			-3.505
77804.000			-10.515			-3.505
77904.000			-10.515			-3.505
78004.000			-10.513			-3.504
78104.000			-10.514			-3.505
78204.000			-10.515			-3.505
78305.000			-10.514			-3.505
78404.000			-10.514			-3.505
78503.000			-10.514			-3.505
78605.000			-10.514			-3.505
78704.000			-10.513			-3.504
78804.000			-10.512			-3.504
78905.000			-10.512			-3.504
79004.000			-10.512			-3.504
79104.000			-10.512			-3.504
79204.000			-10.511			-3.504
79304.000			-10.511			-3.504
79404.000			-10.512			-3.504
79505.000			-10.511			-3.504
79604.000			-10.511			-3.504
79704.000			-10.511			-3.504
79805.000			-10.512			-3.504
79903.000			-10.509			-3.503
80004.000			-10.510			-3.503
80105.000			-10.510			-3.503
80204.000			-10.510			-3.503
80304.000			-10.509			-3.503
80405.000			-10.509			-3.503
80504.000			-10.508			-3.503
80603.000			-10.508			-3.503
80704.000			-10.508			-3.503
80804.000			-10.507			-3.502
80905.000			-10.508			-3.503
81004.000			-10.509			-3.503
81104.000			-10.508			-3.503
81205.000			-10.507			-3.502
81303.000			-10.508			-3.503
81404.000			-10.507			-3.502
81505.000			-10.506			-3.502
81604.000			-10.507			-3.502
81704.000			-10.507			-3.502
81804.000			-10.504			-3.501
81904.000			-10.504			-3.501
82003.000			-10.504			-3.501
82105.000			-10.504			-3.501
82204.000			-10.504			-3.501
82304.000			-10.504			-3.501
82405.000			-10.504			-3.501
82503.000			-10.503			-3.501
82604.000			-10.503			-3.501
82705.000			-10.502			-3.501
82804.000			-10.502			-3.501
82904.000			-10.502			-3.501
83005.000			-10.501			-3.500
83104.000			-10.501			-3.500
83203.000			-10.502			-3.501
83305.000			-10.501			-3.500
83404.000			-10.500			-3.500
83504.000			-10.499			-3.500
83605.000			-10.499			-3.500
83704.000			-10.500			-3.500
83805.000			-10.500			-3.500
83903.000			-10.500			-3.500
84004.000			-10.500			-3.500
84105.000			-10.499			-3.500
84204.000			-10.498			-3.499
84304.000			-10.498			-3.499
84405.000			-10.499			-3.500
84504.000			-10.499			-3.500
84603.000			-10.498			-3.499
84705.000			-10.497			-3.499
84804.000			-10.498			-3.499
84904.000			-10.497			-3.499
85005.000			-10.496			-3.499
85104.000			-10.496			-3.499
85204.000			-10.495			-3.498
85304.000			-10.495			-3.498
85404.000			-10.496			-3.499
85504.000			-10.496			-3.499
85605.000			-10.495			-3.498
85704.000			-10.495			-3.498
85804.000			-10.495			-3.498
85905.000			-10.495			-3.498
86003.000			-10.494			-3.498
86104.000			-10.493			-3.498
86205.000			-10.493			-3.498
86304.000			-10.493			-3.498
86404.000			-10.492			-3.497
86505.000			-10.493			-3.498
86604.000			-10.492			-3.497
86703.000			-10.492			-3.497
86805.000			-10.491			-3.497
86904.000			-10.492			-3.497
87005.000			-10.492			-3.497
87104.000			-10.491			-3.497
87204.000			-10.491			-3.497
87305.000			-10.490			-3.497
87403.000			-10.491			-3.497
87504.000			-10.491			-3.497
87605.000			-10.490			-3.497
87704.000			-10.490			-3.497
87804.000			-10.490			-3.497
87905.000			-10.489			-3.496
88004.000			-10.488			-3.496
88103.000			-10.489			-3.496
88205.000			-10.489			-3.496
88304.000			-10.488			-3.496
88404.000			-10.488			-3.496
88505.000			-10.489			-3.496
88604.000			-10.488			-3.496
88704.000			-10.487			-3.496
88804.000			-10.487			-3.496
88904.000			-10.487			-3.496
89004.000			-10.486			-3.495
89105.000			-10.486			-3.495
89204.000			-10.487			-3.496
89304.000			-10.486			-3.495
89405.000			-10.486			-3.495
89503.000			-10.485			-3.495
89604.000			-10.485			-3.495
89705.000			-10.485			-3.495
89804.000			-10.485			-3.495
89904.000			-10.484			-3.495
90005.000			-10.485			-3.495
90104.000			-10.485			-3.495
90203.000			-10.483			-3.494
90304.000			-10.483			-3.494
90404.000			-10.484			-3.495
90505.000			-10.483			-3.494
90604.000			-10.484			-3.495
90704.000			-10.482			-3.494
90805.000			-10.482			-3.494
90903.000			-10.481			-3.494
91004.000			-10.482			-3.494
91105.000			-10.482			-3.494
91204.000			-10.481			-3.494
91304.000			-10.481			-3.494
91405.000			-10.482			-3.494
91504.000			-10.481			-3.494
91603.000			-10.480			-3.493
91705.000			-10.480			-3.493
91804.000			-10.480			-3.493
91904.000			-10.481			-3.494
92005.000			-10.479			-3.493
92104.000			-10.479			-3.493
92204.000			-10.478			-3.493
92304.000			-10.479			-3.493
92404.000			-10.478			-3.493
92504.000			-10.478			-3.493
92605.000			-10.477			-3.492
92704.000			-10.477			-3.492
92804.000			-10.478			-3.493
92905.000			-10.478			-3.493
93003.000			-10.477			-3.492
93104.000			-10.476			-3.492
93205.000			-10.476			-3.492
93304.000			-10.476			-3.492
93405.000			-10.476			-3.492
93504.000			-10.476			-3.492
93604.000			-10.476			-3.492
93704.000			-10.474			-3.491
93804.000			-10.475			-3.492
93904.000			-10.475			-3.492
94005.000			-10.475			-3.492
94104.000			-10.475			-3.492
94204.000			-10.475			-3.492
94305.000			-10.475			-3.492
94403.000			-10.474			-3.491
94504.000			-10.474			-3.491
94605.000			-10.473			-3.491
94704.000			-10.473			-3.491
94804.000			-10.473			-3.491
94905.000			-10.472			-3.491
95004.000			-10.472			-3.491
95103.000			-10.472			-3.491
95205.000			-10.472			-3.491
95304.000			-10.471			-3.490
95404.000			-10.471			-3.490
95505.000			-10.471			-3.490
95604.000			-10.471			-3.490
95704.000			-10.470			-3.490
95804.000			-10.470			-3.490
95904.000			-10.470			-3.490
96004.000			-10.469			-3.490
96105.000			-10.469			-3.490
96204.000			-10.469			-3.490
96304.000			-10.470			-3.490
96405.000			-10.469			-3.490
96503.000			-10.469			-3.490
96605.000			-10.468			-3.489
96704.000			-10.468			-3.489
96804.000			-10.468			-3.489
96905.000			-10.468			-3.489
97004.000			-10.467			-3.489
97104.000			-10.467			-3.489
97204.000			-10.467			-3.489
97304.000			-10.466			-3.489
97404.000			-10.466			-3.489
97505.000			-10.465			-3.488
97604.000			-10.465			-3.488
97704.000			-10.465			-3.488
97805.000			-10.464			-3.488
97903.000			-10.465			-3.488
98004.000			-10.466			-3.489
98105.000			-10.465			-3.488
98204.000			-10.463			-3.488
98304.000			-10.463			-3.488
98405.000			-10.463			-3.488
98504.000			-10.462			-3.487
98603.000			-10.463			-3.488
98705.000			-10.463			-3.488
98804.000			-10.463			-3.488
98904.000			-10.462			-3.487
99005.000			-10.462			-3.487
99104.000			-10.460			-3.487
99204.000			-10.461			-3.487
99304.000			-10.462			-3.487
99404.000			-10.462			-3.487
99504.000			-10.462			-3.487
99605.000			-10.461			-3.487
99704.000			-10.461			-3.487
99805.000			-10.460			-3.487
99904.000			-10.461			-3.487
100003.000			-10.460			-3.487
100105.000			-10.459			-3.486
100204.000			-10.460			-3.487
100304.000			-10.460			-3.487
100405.000			-10.459			-3.486
100504.000			-10.458			-3.486
100604.000			-10.458			-3.486
100704.000			-10.459			-3.486
100804.000			-10.459			-3.486
100904.000			-10.459			-3.486
101005.000			-10.458			-3.486
101104.000			-10.459			-3.486
101204.000			-10.459			-3.486
101305.000			-10.459			-3.486
101403.000			-10.458			-3.486
101504.000			-10.458			-3.486
101605.000			-10.458			-3.486
101704.000			-10.457			-3.486
101804.000			-10.457			-3.486
101905.000			-10.457			-3.486
102004.000			-10.457			-3.486
102103.000			-10.457			-3.486
102205.000			-10.457			-3.486
102304.000			-10.457			-3.486
102404.000			-10.457			-3.486
102505.000			-10.456			-3.485
102604.000			-10.454			-3.485
102704.000			-10.455			-3.485
102804.000			-10.455			-3.485
102904.000			-10.455			-3.485
103005.000			-10.456			-3.485
103104.000			-10.455			-3.485
103204.000			-10.454			-3.485
103305.000			-10.454			-3.485
103404.000			-10.453			-3.484
103503.000			-10.454			-3.485
103605.000			-10.455			-3.485
103704.000			-10.454			-3.485
103804.000			-10.453			-3.484
103905.000			-10.452			-3.484
104004.000			-10.453			-3.484
104104.000			-10.453			-3.484
104204.000			-10.452			-3.484
104304.000			-10.451			-3.484
104404.000			-10.451			-3.484
104505.000			-10.451			-3.484
104604.000			-10.451			-3.484
104704.000			-10.451			-3.484
104805.000			-10.450			-3.483
104903.000			-10.451			-3.484
105004.000			-10.450			-3.483
105105.000			-10.450			-3.483
105204.000			-10.449			-3.483
105304.000			-10.449			-3.483
105405.000			-10.450			-3.483
105504.000			-10.449			-3.483
105603.000			-10.449			-3.483
105705.000			-10.448			-3.483
105804.000			-10.448			-3.483
105904.000			-10.448			-3.483
106005.000			-10.448			-3.483
106104.000			-10.449			-3.483
106205.000			-10.448			-3.483
106303.000			-10.448			-3.483
106404.000			-10.448			-3.483
106505.000			-10.448			-3.483
106604.000			-10.447			-3.482
106704.000			-10.447			-3.482
106805.000			-10.447			-3.482
106904.000			-10.446			-3.482
107004.000			-10.446			-3.482
107105.000			-10.446			-3.482
107203.000			-10.446			-3.482
107304.000			-10.447			-3.482
107405.000			-10.447			-3.482
107504.000			-10.445			-3.482
107604.000			-10.444			-3.481
107705.000			-10.446			-3.482
107804.000			-10.445			-3.482
107903.000			-10.444			-3.481
108005.000			-10.443			-3.481
108104.000			-10.444			-3.481
108204.000			-10.443			-3.481
108305.000			-10.444			-3.481
108404.000			-10.443			-3.481
108504.000			-10.443			-3.481
108604.000			-10.442			-3.481
108704.000			-10.442			-3.481
108804.000			-10.442			-3.481
108905.000			-10.441			-3.480
109004.000			-10.441			-3.480
109104.000			-10.442			-3.481
109205.000			-10.442			-3.481
109303.000			-10.442			-3.481
109405.000			-10.441			-3.480
109504.000			-10.441			-3.480
109604.000			-10.440			-3.480
109705.000			-10.440			-3.480
109804.000			-10.440			-3.480
109904.000			-10.439			-3.480
110004.000			-10.439			-3.480
110104.000			-10.439			-3.480
110204.000			-10.439			-3.480
110305.000			-10.439			-3.480
110404.000			-10.439			-3.480
110504.000			-10.439			-3.480
110605.000			-10.438			-3.479
110703.000			-10.438			-3.479
110804.000			-10.439			-3.480
110905.000			-10.439			-3.480
111004.000			-10.438			-3.479
111104.000			-10.438			-3.479
111205.000			-10.438			-3.479
111304.000			-10.437			-3.479
111403.000			-10.437			-3.479
111505.000			-10.436			-3.479
111604.000			-10.437			-3.479
111704.000			-10.437			-3.479
111805.000			-10.436			-3.479
111904.000			-10.436			-3.479
112004.000			-10.436			-3.479
112104.000			-10.437			-3.479
112204.000			-10.436			-3.479
112304.000			-10.435			-3.478
112405.000			-10.435			-3.478
112504.000			-10.435			-3.478
112603.000			-10.433			-3.478
112704.000			-10.433			-3.478
112803.000			-10.433			-3.478
112905.000			-10.434			-3.478
113004.000			-10.433			-3.478
113104.000			-10.432			-3.477
113205.000			-10.433			-3.478
113303.000			-10.433			-3.478
113404.000			-10.433			-3.478
113505.000			-10.432			-3.477
113604.000			-10.432			-3.477
113704.000			-10.432			-3.477
113805.000			-10.432			-3.477
113904.000			-10.433			-3.478
114003.000			-10.432			-3.477
114105.000			-10.431			-3.477
114204.000			-10.431			-3.477
114304.000			-10.432			-3.477
114405.000			-10.431			-3.477
114504.000			-10.430			-3.477
114604.000			-10.430			-3.477
114704.000			-10.431			-3.477
114804.000			-10.431			-3.477
114904.000			-10.430			-3.477
115005.000			-10.430			-3.477
115104.000			-10.430			-3.477
115204.000			-10.429			-3.476
115305.000			-10.429			-3.476
115403.000			-10.430			-3.477
115504.000			-10.431			-3.477
115605.000			-10.429			-3.476
115704.000			-10.428			-3.476
115805.000			-10.427			-3.476
115904.000			-10.427			-3.476
116004.000			-10.428			-3.476
116104.000			-10.428			-3.476
116204.000			-10.428			-3.476
116304.000			-10.427			-3.476
116405.000			-10.428			-3.476
116504.000			-10.427			-3.476
116604.000			-10.427			-3.476
116705.000			-10.428			-3.476
116803.000			-10.427			-3.476
116904.000			-10.426			-3.475
117005.000			-10.426			-3.475
117104.000			-10.426			-3.475
117204.000			-10.426			-3.475
117305.000			-10.426			-3.475
117404.000			-10.427			-3.476
117503.000			-10.426			-3.475
117605.000			-10.425			-3.475
117704.000			-10.425			-3.475
117804.000			-10.425			-3.475
117905.000			-10.425			-3.475
118004.000			-10.424			-3.475
118104.000			-10.423			-3.474
118204.000			-10.424			-3.475
118304.000			-10.424			-3.475
118404.000			-10.423			-3.474
118505.000			-10.424			-3.475
118604.000			-10.423			-3.474
118704.000			-10.423			-3.474
118805.000			-10.423			-3.474
118903.000			-10.423			-3.474
119005.000			-10.423			-3.474
119104.000			-10.423			-3.474
119204.000			-10.422			-3.474
119305.000			-10.422			-3.474
119404.000			-10.422			-3.474
119504.000			-10.421			-3.474
119604.000			-10.420			-3.473
119704.000			-10.421			-3.474
119804.000			-10.422			-3.474
119905.000			-10.421			-3.474
120004.000			-10.421			-3.474
120104.000			-10.421			-3.474
120205.000			-10.419			-3.473
120303.000			-10.419			-3.473
120404.000			-10.420			-3.473
120505.000			-10.420			-3.473
120604.000			-10.419			-3.473
120704.000			-10.419			-3.473
120805.000			-10.420			-3.473
120904.000			-10.420			-3.473
121003.000			-10.419			-3.473
121105.000			-10.419			-3.473
121204.000			-10.420			-3.473
121304.000			-10.419			-3.473
121405.000			-10.419			-3.473
121504.000			-10.418			-3.473
121604.000			-10.418			-3.473
121704.000			-10.418			-3.473
121804.000			-10.418			-3.473
121904.000			-10.418			-3.473
122005.000			-10.418			-3.473
122104.000			-10.417			-3.472
122205.000			-10.416			-3.472
122304.000			-10.417			-3.472
122403.000			-10.418			-3.473
122505.000			-10.418			-3.473
122604.000			-10.417			-3.472
122704.000			-10.417			-3.472
122805.000			-10.416			-3.472
122904.000			-10.415			-3.472
123004.000			-10.417			-3.472
123104.000			-10.416			-3.472
123204.000			-10.415			-3.472
123304.000			-10.415			-3.472
123405.000			-10.414			-3.471
123504.000			-10.415			-3.472
123604.000			-10.414			-3.471
123705.000			-10.413			-3.471
123803.000			-10.413			-3.471
123904.000			-10.414			-3.471
124005.000			-10.414			-3.471
124104.000			-10.414			-3.471
124204.000			-10.414			-3.471
124305.000			-10.414			-3.471
124404.000			-10.413			-3.471
124503.000			-10.412			-3.471
124605.000			-10.412			-3.471
124704.000			-10.412			-3.471
124804.000			-10.412			-3.471
124905.000			-10.411			-3.470
125004.000			-10.410			-3.470
125104.000			-10.411			-3.470
125204.000			-10.411			-3.470
125304.000			-10.411			-3.470
125405.000			-10.410			-3.470
125504.000			-10.409			-3.470
125604.000			-10.408			-3.469
125705.000			-10.408			-3.469
125804.000			-10.410			-3.470
125903.000			-10.408			-3.469
126005.000			-10.408			-3.469
126104.000			-10.409			-3.470
126204.000			-10.409			-3.470
126305.000			-10.408			-3.469
126404.000			-10.408			-3.469
126504.000			-10.408			-3.469
126604.000			-10.409			-3.470
126704.000			-10.408			-3.469
126804.000			-10.408			-3.469
126905.000			-10.408			-3.469
127004.000			-10.408			-3.469
127104.000			-10.408			-3.469
127205.000			-10.407			-3.469
127303.000			-10.406			-3.469
127404.000			-10.405			-3.468
127505.000			-10.406			-3.469
127604.000			-10.406			-3.469
127704.000			-10.406			-3.469
127805.000			-10.406			-3.469
127904.000			-10.406			-3.469
128003.000			-10.405			-3.468
128105.000			-10.405			-3.468
128204.000			-10.405			-3.468
128304.000			-10.405			-3.468
128405.000			-10.405			-3.468
128504.000			-10.404			-3.468
128605.000			-10.404			-3.468
128703.000			-10.404			-3.468
128804.000			-10.404			-3.468
128905.000			-10.403			-3.468
129004.000			-10.403			-3.468
129104.000			-10.403			-3.468
129205.000			-10.403			-3.468
129304.000			-10.403			-3.468
129403.000			-10.402			-3.467
129505.000			-10.402			-3.467
129604.000			-10.402			-3.467
129704.000			-10.402			-3.467
129805.000			-10.401			-3.467
129904.000			-10.402			-3.467
130004.000			-10.401			-3.467
130104.000			-10.401			-3.467
130204.000			-10.401			-3.467
130304.000			-10.401			-3.467
130405.000			-10.400			-3.467
130504.000			-10.399			-3.466
130603.000			-10.400			-3.467
130705.000			-10.399			-3.466
130804.000			-10.398			-3.466
130904.000			-10.397			-3.466
131005.000			-10.397			-3.466
131104.000			-10.398			-3.466
131204.000			-10.397			-3.466
131305.000			-10.397			-3.466
131404.000			-10.396			-3.465
131503.000			-10.396			-3.465
131605.000			-10.397			-3.466
131704.000			-10.396			-3.465
131805.000			-10.397			-3.466
131904.000			-10.398			-3.466
132004.000			-10.397			-3.466
132105.000			-10.396			-3.465
132204.000			-10.397			-3.466
132304.000			-10.397			-3.466
132404.000			-10.396			-3.465
132504.000			-10.396			-3.465
132604.000			-10.397			-3.466
132705.000			-10.397			-3.466
132804.000			-10.396			-3.465
132904.000			-10.396			-3.465
133005.000			-10.395			-3.465
133103.000			-10.396			-3.465
133204.000			-10.395			-3.465
133305.000			-10.394			-3.465
133404.000			-10.395			-3.465
133504.000			-10.395			-3.465
133605.000			-10.395			-3.465
133704.000			-10.394			-3.465
133804.000			-10.394			-3.465
133905.000			-10.394			-3.465
134003.000			-10.394			-3.465
134104.000			-10.394			-3.465
134205.000			-10.394			-3.465
134304.000			-10.394			-3.465
134404.000			-10.394			-3.465
134505.000			-10.394			-3.465
134604.000			-10.393			-3.464
134704.000			-10.393			-3.464
134805.000			-10.393			-3.464
134903.000			-10.393			-3.464
135005.000			-10.392			-3.464
135104.000			-10.392			-3.464
135204.000			-10.393			-3.464
135305.000			-10.393			-3.464
135404.000			-10.393			-3.464
135504.000			-10.392			-3.464
135604.000			-10.392			-3.464
135704.000			-10.392			-3.464
135803.000			-10.393			-3.464
135905.000			-10.393			-3.464
136004.000			-10.392			-3.464
136104.000			-10.392			-3.464
136205.000			-10.391			-3.464
136304.000			-10.391			-3.464
136404.000			-10.392			-3.464
136504.000			-10.392			-3.464
136604.000			-10.392			-3.464
136704.000			-10.392			-3.464
136805.000			-10.391			-3.464
136904.000			-10.390			-3.463
137004.000			-10.389			-3.463
137105.000			-10.390			-3.463
137204.000			-10.390			-3.463
137304.000			-10.390			-3.463
137404.000			-10.390			-3.463
137504.000			-10.388			-3.463
137604.000			-10.389			-3.463
137705.000			-10.389			-3.463
137804.000			-10.388			-3.463
137904.000			-10.388			-3.463
138005.000			-10.388			-3.463
138104.000			-10.388			-3.463
138205.000			-10.388			-3.463
138303.000			-10.388			-3.463
138404.000			-10.387			-3.462
138505.000			-10.388			-3.463
138604.000			-10.388			-3.463
138704.000			-10.388			-3.463
138805.000			-10.388			-3.463
138904.000			-10.388			-3.463
139004.000			-10.386			-3.462
139105.000			-10.386			-3.462
139203.000			-10.387			-3.462
139304.000			-10.387			-3.462
139405.000			-10.386			-3.462
139504.000			-10.386			-3.462
139604.000			-10.386			-3.462
139705.000			-10.386			-3.462
139804.000			-10.387			-3.462
139904.000			-10.386			-3.462
140005.000			-10.385			-3.462
140103.000			-10.385			-3.462
140204.000			-10.385			-3.462
140305.000			-10.385			-3.462
140404.000			-10.385			-3.462
140504.000			-10.384			-3.461
140605.000			-10.384			-3.461
140704.000			-10.384			-3.461
140803.000			-10.385			-3.462
140905.000			-10.385			-3.462
141003.000			-10.385			-3.462
141104.000			-10.385			-3.462
141205.000			-10.384			-3.461
141304.000			-10.384			-3.461
141405.000			-10.384			-3.461
141504.000			-10.383			-3.461
141604.000			-10.383			-3.461
141704.000			-10.382			-3.461
141804.000			-10.382			-3.461
141904.000			-10.383			-3.461
142005.000			-10.382			-3.461
142104.000			-10.382			-3.461
142204.000			-10.381			-3.460
142305.000			-10.382			-3.461
142404.000			-10.381			-3.460
142504.000			-10.380			-3.460
142604.000			-10.382			-3.461
142704.000			-10.381			-3.460
142804.000			-10.381			-3.460
142905.000			-10.381			-3.460
143004.000			-10.380			-3.460
143104.000			-10.380			-3.460
143205.000			-10.381			-3.460
143303.000			-10.381			-3.460
143404.000			-10.381			-3.460
143505.000			-10.380			-3.460
143604.000			-10.380			-3.460
143704.000			-10.380			-3.460
143805.000			-10.380			-3.460
143904.000			-10.379			-3.460
144004.000			-10.380			-3.460
144105.000			-10.380			-3.460
144203.000			-10.379			-3.460
144304.000			-10.378			-3.459
144405.000			-10.379			-3.460
144504.000			-10.379			-3.460
144605.000			-10.379			-3.460
144704.000			-10.379			-3.460
144804.000			-10.377			-3.459
144905.000			-10.377			-3.459
145004.000			-10.378			-3.459
145103.000			-10.377			-3.459
145205.000			-10.377			-3.459
145304.000			-10.377			-3.459
145404.000			-10.377			-3.459
145505.000			-10.376			-3.459
145604.000			-10.376			-3.459
145704.000			-10.376			-3.459
145805.000			-10.376			-3.459
145904.000			-10.376			-3.459
146003.000			-10.376			-3.459
146105.000			-10.377			-3.459
146204.000			-10.376			-3.459
146304.000			-10.376			-3.459
146405.000			-10.376			-3.459
146504.000			-10.376			-3.459
146604.000			-10.375			-3.458
146705.000			-10.375			-3.458
146804.000			-10.374			-3.458
146903.000			-10.375			-3.458
147005.000			-10.374			-3.458
147104.000			-10.374			-3.458
147204.000			-10.375			-3.458
147305.000			-10.375			-3.458
147404.000			-10.375			-3.458
147504.000			-10.374			-3.458
147605.000			-10.374			-3.458
147704.000			-10.372			-3.457
147803.000			-10.374			-3.458
147904.000			-10.375			-3.458
148004.000			-10.374			-3.458
148105.000			-10.373			-3.458
148204.000			-10.372			-3.457
148304.000			-10.373			-3.458
148405.000			-10.372			-3.457
148504.000			-10.373			-3.458
148604.000			-10.373			-3.458
148704.000			-10.372			-3.457
148804.000			-10.372			-3.457
148904.000			-10.372			-3.457
149005.000			-10.372			-3.457
149104.000			-10.372			-3.457
149204.000			-10.371			-3.457
149305.000			-10.371			-3.457
149404.000			-10.372			-3.457
149504.000			-10.371			-3.457
149604.000			-10.370			-3.457
149704.000			-10.371			-3.457
149804.000			-10.372			-3.457
149905.000			-10.371			-3.457
150004.000			-10.370			-3.457
150104.000			-10.370			-3.457
150205.000			-10.371			-3.457
150303.000			-10.370			-3.457
150404.000			-10.370			-3.457
150505.000			-10.371			-3.457
150604.000			-10.370			-3.457
150704.000			-10.370			-3.457
150805.000			-10.369			-3.456
150904.000			-10.368			-3.456
151005.000			-10.369			-3.456
151104.000			-10.370			-3.457
151203.000			-10.370			-3.457
151305.000			-10.368			-3.456
151404.000			-10.369			-3.456
151504.000			-10.369			-3.456
151605.000			-10.368			-3.456
151704.000			-10.369			-3.456
151804.000			-10.368			-3.456
151905.000			-10.366			-3.455
152004.000			-10.367			-3.456
152103.000			-10.366			-3.455
152205.000			-10.365			-3.455
152304.000			-10.365			-3.455
152404.000			-10.365			-3.455
152505.000			-10.365			-3.455
152604.000			-10.364			-3.455
152704.000			-10.363			-3.454
152804.000			-10.363			-3.454
152904.000			-10.362			-3.454
153003.000			-10.361			-3.454
153105.000			-10.361			-3.454
153204.000			-10.362			-3.454
153304.000			-10.362			-3.454
153405.000			-10.361			-3.454
153504.000			-10.360			-3.453
153604.000			-10.362			-3.454
153704.000			-10.361			-3.454
153804.000			-10.361			-3.454
153904.000			-10.361			-3.454
154005.000			-10.361			-3.454
154104.000			-10.361			-3.454
154205.000			-10.361			-3.454
154304.000			-10.360			-3.453
154404.000			-10.360			-3.453
154505.000			-10.359			-3.453
154603.000			-10.359			-3.453
154704.000			-10.360			-3.453
154805.000			-10.360			-3.453
154904.000			-10.360			-3.453
155004.000			-10.359			-3.453
155105.000			-10.359			-3.453
155204.000			-10.358			-3.453
155303.000			-10.358			-3.453
155405.000			-10.359			-3.453
155503.000			-10.359			-3.453
155604.000			-10.359			-3.453
155705.000			-10.359			-3.453
155804.000			-10.359			-3.453
155904.000			-10.357			-3.452
156005.000			-10.356			-3.452
156104.000			-10.358			-3.453
156203.000			-10.358			-3.453
156305.000			-10.358			-3.453
156403.000			-10.358			-3.453
156504.000			-10.357			-3.452
156605.000			-10.357			-3.452
156704.000			-10.357			-3.452
156804.000			-10.357			-3.452
156905.000			-10.358			-3.453
157004.000			-10.357			-3.452
157103.000			-10.357			-3.452
157205.000			-10.358			-3.453
157304.000			-10.358			-3.453
157405.000			-10.357			-3.452
157504.000			-10.357			-3.452
157604.000			-10.356			-3.452
157705.000			-10.357			-3.452
157804.000			-10.357			-3.452
157904.000			-10.358			-3.453
158004.000			-10.358			-3.453
158104.000			-10.357			-3.452
158203.000			-10.357			-3.452
158305.000			-10.356			-3.452
158404.000			-10.356			-3.452
158504.000			-10.356			-3.452
158605.000			-10.356			-3.452
158704.000			-10.357			-3.452
158804.000			-10.356			-3.452
158904.000			-10.355			-3.452
159004.000			-10.356			-3.452
159103.000			-10.356			-3.452
159205.000			-10.356			-3.452
159304.000			-10.355			-3.452
159404.000			-10.355			-3.452
159505.000			-10.355			-3.452
159604.000			-10.354			-3.451
159704.000			-10.354			-3.451
159804.000			-10.353			-3.451
159904.000			-10.354			-3.451
160003.000			-10.354			-3.451
160105.000			-10.354			-3.451
160204.000			-10.354			-3.451
160304.000			-10.354			-3.451
160405.000			-10.354			-3.451
160504.000			-10.354			-3.451
160605.000			-10.355			-3.452
160703.000			-10.354			-3.451
160804.000			-10.354			-3.451
160905.000			-10.354			-3.451
161004.000			-10.354			-3.451
161104.000			-10.353			-3.451
161205.000			-10.352			-3.451
161304.000			-10.352			-3.451
161404.000			-10.352			-3.451
161505.000			-10.352			-3.451
161603.000			-10.352			-3.451
161704.000			-10.352			-3.451
161805.000			-10.352			-3.451
161904.000			-10.352			-3.451
162004.000			-10.352			-3.451
162105.000			-10.351			-3.450
162204.000			-10.351			-3.450
162303.000			-10.351			-3.450
162405.000			-10.351			-3.450
162504.000			-10.351			-3.450
162604.000			-10.350			-3.450
162705.000			-10.351			-3.450
162804.000			-10.351			-3.450
162904.000			-10.351			-3.450
163005.000			-10.350			-3.450
163104.000			-10.351			-3.450
163203.000			-10.351			-3.450
163305.000			-10.350			-3.450
163404.000			-10.349			-3.450
163504.000			-10.349			-3.450
163605.000			-10.348			-3.449
163704.000			-10.348			-3.449
163805.000			-10.350			-3.450
163903.000			-10.351			-3.450
164004.000			-10.349			-3.450
164105.000			-10.348			-3.449
164204.000			-10.349			-3.450
164304.000			-10.349			-3.450
164405.000			-10.349			-3.450
164504.000			-10.348			-3.449
164604.000			-10.349			-3.450
164705.000			-10.349			-3.450
164803.000			-10.348			-3.449
164904.000			-10.348			-3.449
165004.000			-10.348			-3.449
165104.000			-10.348			-3.449
165204.000			-10.346			-3.449
165305.000			-10.347			-3.449
165404.000			-10.347			-3.449
165504.000			-10.347			-3.449
165605.000			-10.348			-3.449
165703.000			-10.347			-3.449
165804.000			-10.347			-3.449
165904.000			-10.346			-3.449
166004.000			-10.346			-3.449
166104.000			-10.347			-3.449
166205.000			-10.347			-3.449
166304.000			-10.347			-3.449
166404.000			-10.346			-3.449
166505.000			-10.346			-3.449
166603.000			-10.346			-3.449
166704.000			-10.346			-3.449
166805.000			-10.346			-3.449
166904.000			-10.346			-3.449
167005.000			-10.346			-3.449
167104.000			-10.345			-3.448
167204.000			-10.346			-3.449
167305.000			-10.346			-3.449
167404.000			-10.345			-3.448
167503.000			-10.344			-3.448
167605.000			-10.344			-3.448
167704.000			-10.344			-3.448
167804.000			-10.344			-3.448
167905.000			-10.344			-3.448
168004.000			-10.344			-3.448
168104.000			-10.345			-3.448
168205.000			-10.344			-3.448
168304.000			-10.344			-3.448
168403.000			-10.344			-3.448
168505.000			-10.344			-3.448
168604.000			-10.343			-3.448
168704.000			-10.343			-3.448
168805.000			-10.344			-3.448
168904.000			-10.344			-3.448
169004.000			-10.344			-3.448
169104.000			-10.343			-3.448
169204.000			-10.342			-3.447
169303.000			-10.341			-3.447
169405.000			-10.342			-3.447
169504.000			-10.343			-3.448
169604.000			-10.343			-3.448
169705.000			-10.343			-3.448
169804.000			-10.343			-3.448
169904.000			-10.342			-3.447
170004.000			-10.342			-3.447
170104.000			-10.341			-3.447
170205.000			-10.342			-3.447
170304.000			-10.341			-3.447
170404.000			-10.341			-3.447
170505.000			-10.341			-3.447
170604.000			-10.342			-3.447
170704.000			-10.342			-3.447
170805.000			-10.342			-3.447
170903.000			-10.342			-3.447
171004.000			-10.341			-3.447
171105.000			-10.341			-3.447
171204.000			-10.341			-3.447
171304.000			-10.341			-3.447
171405.000			-10.341			-3.447
171504.000			-10.340			-3.447
171603.000			-10.340			-3.447
171705.000			-10.341			-3.447
171804.000			-10.341			-3.447
171904.000			-10.340			-3.447
172005.000			-10.340			-3.447
172104.000			-10.339			-3.446
172204.000			-10.339			-3.446
172305.000			-10.339			-3.446
172404.000			-10.339			-3.446
172503.000			-10.338			-3.446
172605.000			-10.338			-3.446
172704.000			-10.339			-3.446
172804.000			-10.339			-3.446
172905.000			-10.338			-3.446
173004.000			-10.339			-3.446
173104.000			-10.338			-3.446
173205.000			-10.339			-3.446
173304.000			-10.339			-3.446
173403.000			-10.337			-3.446
173504.000			-10.337			-3.446
173604.000			-10.338			-3.446
173705.000			-10.338			-3.446
173804.000			-10.337			-3.446
173904.000			-10.337			-3.446
174005.000			-10.338			-3.446
174104.000			-10.337			-3.446
174204.000			-10.338			-3.446
174304.000			-10.337			-3.446
174404.000			-10.336			-3.445
174504.000			-10.335			-3.445
174605.000			-10.336			-3.445
174704.000			-10.336			-3.445
174804.000			-10.335			-3.445
174905.000			-10.335			-3.445
175004.000			-10.335			-3.445
175104.000			-10.335			-3.445
175204.000			-10.335			-3.445
175304.000			-10.335			-3.445
175404.000			-10.334			-3.445
175505.000			-10.335			-3.445
175604.000			-10.335			-3.445
175704.000			-10.335			-3.445
175805.000			-10.335			-3.445
175903.000			-10.335			-3.445
176004.000			-10.335			-3.445
176104.000			-10.334			-3.445
176204.000			-10.334			-3.445
176304.000			-10.335			-3.445
176405.000			-10.334			-3.445
176504.000			-10.334			-3.445
176605.000			-10.334			-3.445
176704.000			-10.333			-3.444
176803.000			-10.333			-3.444
176905.000			-10.334			-3.445
177004.000			-10.334			-3.445
177104.000			-10.333			-3.444
177205.000			-10.334			-3.445
177304.000			-10.334			-3.445
177404.000			-10.332			-3.444
177505.000			-10.332			-3.444
177604.000			-10.332			-3.444
177703.000			-10.332			-3.444
177805.000			-10.330			-3.443
177904.000			-10.331			-3.444
178004.000			-10.331			-3.444
178105.000			-10.331			-3.444
178204.000			-10.331			-3.444
178304.000			-10.329			-3.443
178405.000			-10.329			-3.443
178504.000			-10.329			-3.443
178603.000			-10.329			-3.443
178705.000			-10.328			-3.443
178804.000			-10.329			-3.443
178904.000			-10.329			-3.443
179005.000			-10.329			-3.443
179104.000			-10.328			-3.443
179204.000			-10.328			-3.443
179305.000			-10.329			-3.443
179404.000			-10.328			-3.443
179503.000			-10.328			-3.443
179605.000			-10.328			-3.443
179704.000			-10.328			-3.443
179805.000			-10.327			-3.442
179904.000			-10.326			-3.442
180004.000			-10.327			-3.442
180105.000			-10.327			-3.442
180204.000			-10.328			-3.443
180304.000			-10.327			-3.442
180404.000			-10.327			-3.442
180504.000			-10.326			-3.442
180604.000			-10.326			-3.442
180705.000			-10.327			-3.442
180804.000			-10.327			-3.442
180904.000			-10.326			-3.442
181005.000			-10.326			-3.442
181103.000			-10.327			-3.442
181204.000			-10.326			-3.442
181305.000			-10.326			-3.442
181404.000			-10.327			-3.442
181504.000			-10.327			-3.442
181605.000			-10.325			-3.442
181704.000			-10.326			-3.442
181804.000			-10.326			-3.442
181905.000			-10.325			-3.442
182003.000			-10.325			-3.442
182104.000			-10.323			-3.441
182205.000			-10.323			-3.441
182304.000			-10.324			-3.441
182404.000			-10.324			-3.441
182505.000			-10.324			-3.441
182604.000			-10.324			-3.441
182703.000			-10.324			-3.441
182805.000			-10.324			-3.441
182904.000			-10.325			-3.442
183005.000			-10.324			-3.441
183104.000			-10.324			-3.441
183204.000			-10.324			-3.441
183305.000			-10.324			-3.441
183404.000			-10.324			-3.441
183504.000			-10.323			-3.441
183604.000			-10.324			-3.441
183704.000			-10.323			-3.441
183804.000			-10.322			-3.441
183905.000			-10.322			-3.441
184004.000			-10.322			-3.441
184104.000			-10.322			-3.441
184205.000			-10.323			-3.441
184304.000			-10.322			-3.441
184404.000			-10.322			-3.441
184504.000			-10.322			-3.441
184604.000			-10.322			-3.441
184704.000			-10.323			-3.441
184805.000			-10.324			-3.441
184904.000			-10.322			-3.441
185004.000			-10.321			-3.440
185105.000			-10.321			-3.440
185203.000			-10.321			-3.440
185304.000			-10.321			-3.440
185405.000			-10.321			-3.440
185504.000			-10.321			-3.440
185604.000			-10.322			-3.441
185705.000			-10.321			-3.440
185804.000			-10.321			-3.440
185904.000			-10.321			-3.440
186005.000			-10.320			-3.440
186103.000			-10.320			-3.440
186205.000			-10.321			-3.440
186304.000			-10.320			-3.440
186404.000			-10.319			-3.440
186505.000			-10.319			-3.440
186604.000			-10.320			-3.440
186704.000			-10.320			-3.440
186804.000			-10.320			-3.440
186904.000			-10.320			-3.440
187003.000			-10.320			-3.440
187105.000			-10.320			-3.440
187204.000			-10.319			-3.440
187304.000			-10.318			-3.439
187405.000			-10.317			-3.439
187504.000			-10.318			-3.439
187604.000			-10.319			-3.440
187704.000			-10.319			-3.440
187804.000			-10.318			-3.439
187903.000			-10.318			-3.439
188005.000			-10.318			-3.439
188104.000			-10.318			-3.439
188204.000			-10.318			-3.439
188305.000			-10.319			-3.440
188404.000			-10.318			-3.439
188504.000			-10.318			-3.439
188604.000			-10.318			-3.439
188704.000			-10.317			-3.439
188803.000			-10.318			-3.439
188905.000			-10.318			-3.439
189004.000			-10.317			-3.439
189104.000			-10.317			-3.439
189205.000			-10.317			-3.439
189304.000			-10.317			-3.439
189405.000			-10.316			-3.439
189503.000			-10.316			-3.439
189604.000			-10.316			-3.439
189704.000			-10.317			-3.439
189804.000			-10.316			-3.439
189904.000			-10.316			-3.439
190005.000			-10.316			-3.439
190104.000			-10.316			-3.439
190204.000			-10.315			-3.438
190305.000			-10.315			-3.438
190403.000			-10.315			-3.438
190504.000			-10.315			-3.438
190605.000			-10.315			-3.438
190704.000			-10.315			-3.438
190804.000			-10.314			-3.438
190905.000			-10.314			-3.438
191004.000			-10.315			-3.438
191104.000			-10.315			-3.438
191205.000			-10.315			-3.438
191303.000			-10.315			-3.438
191404.000			-10.315			-3.438
191505.000			-10.314			-3.438
191604.000			-10.314			-3.438
191704.000			-10.314			-3.438
191805.000			-10.313			-3.438
191904.000			-10.313			-3.438
192003.000			-10.313			-3.438
192105.000			-10.312			-3.437
192204.000			-10.314			-3.438
192304.000			-10.314			-3.438
192405.000			-10.313			-3.438
192504.000			-10.313			-3.438
192605.000			-10.314			-3.438
192704.000			-10.314			-3.438
192804.000			-10.312			-3.437
192904.000			-10.312			-3.437
193004.000			-10.312			-3.437
193104.000			-10.313			-3.438
193205.000			-10.312			-3.437
193304.000			-10.312			-3.437
193404.000			-10.311			-3.437
193505.000			-10.312			-3.437
193603.000			-10.312			-3.437
193704.000			-10.312			-3.437
193805.000			-10.311			-3.437
193904.000			-10.311			-3.437
194004.000			-10.311			-3.437
194105.000			-10.311			-3.437
194204.000			-10.311			-3.437
194304.000			-10.311			-3.437
194405.000			-10.312			-3.437
194503.000			-10.311			-3.437
194604.000			-10.311			-3.437
194705.000			-10.312			-3.437
194804.000			-10.311			-3.437
194904.000			-10.311			-3.437
195005.000			-10.311			-3.437
195104.000			-10.311			-3.437
195204.000			-10.311			-3.437
195305.000			-10.311			-3.437
195403.000			-10.310			-3.437
195504.000			-10.310			-3.437
195605.000			-10.311			-3.437
195704.000			-10.309			-3.436
195805.000			-10.309			-3.436
195904.000			-10.310			-3.437
196004.000			-10.310			-3.437
196105.000			-10.309			-3.436
196204.000			-10.309			-3.436
196303.000			-10.308			-3.436
196405.000			-10.308			-3.436
196504.000			-10.308			-3.436
196604.000			-10.309			-3.436
196705.000			-10.308			-3.436
196804.000			-10.309			-3.436
196904.000			-10.309			-3.436
197004.000			-10.308			-3.436
197104.000			-10.308			-3.436
197203.000			-10.308			-3.436
197305.000			-10.307			-3.436
197404.000			-10.307			-3.436
197504.000			-10.307			-3.436
197605.000			-10.307			-3.436
197704.000			-10.307			-3.436
197804.000			-10.306			-3.435
197904.000			-10.306			-3.435
198004.000			-10.306			-3.435
198104.000			-10.307			-3.436
198205.000			-10.306			-3.435
198304.000			-10.306			-3.435
198404.000			-10.305			-3.435
198505.000			-10.305			-3.435
198604.000			-10.305			-3.435
198704.000			-10.306			-3.435
198804.000			-10.305			-3.435
198904.000			-10.305			-3.435
199005.000			-10.305			-3.435
199104.000			-10.306			-3.435
199204.000			-10.306			-3.435
199305.000			-10.305			-3.435
199404.000			-10.304			-3.435
199504.000			-10.304			-3.435
199605.000			-10.305			-3.435
199703.000			-10.305			-3.435
199804.000			-10.304			-3.435
199905.000			-10.305			-3.435
200004.000			-10.304			-3.435
200104.000			-10.305			-3.435
200205.000			-10.304			-3.435
200304.000			-10.304			-3.435
200403.000			-10.304			-3.435
200505.000			-10.304			-3.435
200604.000			-10.303			-3.434
200704.000			-10.303			-3.434
200805.000			-10.303			-3.434
200904.000			-10.303			-3.434
201004.000			-10.302			-3.434
201105.000			-10.302			-3.434
201204.000			-10.302			-3.434
201303.000			-10.302			-3.434
201405.000			-10.303			-3.434
201504.000			-10.303			-3.434
201604.000			-10.302			-3.434
201705.000			-10.302			-3.434
201804.000			-10.302			-3.434
201904.000			-10.302			-3.434
202004.000			-10.303			-3.434
202104.000			-10.302			-3.434
202205.000			-10.302			-3.434
202304.000			-10.302			-3.434
202404.000			-10.301			-3.434
202505.000			-10.300			-3.433
202604.000			-10.301			-3.434
202703.000			-10.301			-3.434
202805.000			-10.301			-3.434
202904.000			-10.301			-3.434
203004.000			-10.301			-3.434
203105.000			-10.300			-3.433
203204.000			-10.300			-3.433
203304.000			-10.300			-3.433
203405.000			-10.301			-3.434
203504.000			-10.301			-3.434
203603.000			-10.300			-3.433
203705.000			-10.299			-3.433
203804.000			-10.300			-3.433
203904.000			-10.298			-3.433
204005.000			-10.299			-3.433
204104.000			-10.299			-3.433
204204.000			-10.299			-3.433
204304.000			-10.299			-3.433
204404.000			-10.300			-3.433
204504.000			-10.299			-3.433
204605.000			-10.299			-3.433
204704.000			-10.299			-3.433
204804.000			-10.300			-3.433
204905.000			-10.299			-3.433
205004.000			-10.299			-3.433
205104.000			-10.299			-3.433
205204.000			-10.299			-3.433
205304.000			-10.298			-3.433
205405.000			-10.298			-3.433
205504.000			-10.297			-3.432
205604.000			-10.296			-3.432
205705.000			-10.297			-3.432
205804.000			-10.298			-3.433
205904.000			-10.298			-3.433
206005.000			-10.297			-3.432
206103.000			-10.298			-3.433
206204.000			-10.298			-3.433
206305.000			-10.298			-3.433
206404.000			-10.297			-3.432
206504.000			-10.298			-3.433
206605.000			-10.297			-3.432
206704.000			-10.297			-3.432
206804.000			-10.296			-3.432
206905.000			-10.297			-3.432
207003.000			-10.297			-3.432
207104.000			-10.296			-3.432
207205.000			-10.297			-3.432
207304.000			-10.296			-3.432
207404.000			-10.296			-3.432
207505.000			-10.296			-3.432
207604.000			-10.296			-3.432
207704.000			-10.296			-3.432
207805.000			-10.296			-3.432
207903.000			-10.295			-3.432
208004.000			-10.296			-3.432
208105.000			-10.295			-3.432
208204.000			-10.294			-3.431
208304.000			-10.295			-3.432
208405.000			-10.295			-3.432
208504.000			-10.295			-3.432
208605.000			-10.294			-3.431
208704.000			-10.294			-3.431
208803.000			-10.294			-3.431
208905.000			-10.294			-3.431
209004.000			-10.294			-3.431
209104.000			-10.294			-3.431
209205.000			-10.294			-3.431
209304.000			-10.293			-3.431
209404.000			-10.293			-3.431
209505.000			-10.293			-3.431
209604.000			-10.293			-3.431
209703.000			-10.293			-3.431
209805.000			-10.293			-3.431
209904.000			-10.293			-3.431
210004.000			-10.292			-3.431
210105.000			-10.292			-3.431
210204.000			-10.294			-3.431
210304.000			-10.293			-3.431
210404.000			-10.293			-3.431
210504.000			-10.293			-3.431
210603.000			-10.292			-3.431
210705.000			-10.292			-3.431
210804.000			-10.291			-3.430
210904.000			-10.291			-3.430
211005.000			-10.293			-3.431
211104.000			-10.291			-3.430
211204.000			-10.291			-3.430
211304.000			-10.291			-3.430
211404.000			-10.291			-3.430
211504.000			-10.291			-3.430
211605.000			-10.291			-3.430
211704.000			-10.292			-3.431
211805.000			-10.292			-3.431
211904.000			-10.291			-3.430
212003.000			-10.290			-3.430
212105.000			-10.290			-3.430
212203.000			-10.291			-3.430
212304.000			-10.290			-3.430
212405.000			-10.290			-3.430
212504.000			-10.291			-3.430
212604.000			-10.291			-3.430
212705.000			-10.290			-3.430
212804.000			-10.290			-3.430
212903.000			-10.291			-3.430
213005.000			-10.290			-3.430
213104.000			-10.290			-3.430
213204.000			-10.289			-3.430
213305.000			-10.289			-3.430
213404.000			-10.289			-3.430
213504.000			-10.289			-3.430
213604.000			-10.290			-3.430
213704.000			-10.290			-3.430
213803.000			-10.289			-3.430
213905.000			-10.289			-3.430
214004.000			-10.289			-3.430
214104.000			-10.289			-3.430
214205.000			-10.288			-3.429
214304.000			-10.288			-3.429
214404.000			-10.288			-3.429
214504.000			-10.289			-3.430
214604.000			-10.289			-3.430
214703.000			-10.289			-3.430
214805.000			-10.286			-3.429
214904.000			-10.286			-3.429
215005.000			-10.286			-3.429
215104.000			-10.287			-3.429
215204.000			-10.287			-3.429
215305.000			-10.287			-3.429
215403.000			-10.287			-3.429
215504.000			-10.287			-3.429
215605.000			-10.287			-3.429
215704.000			-10.287			-3.429
215804.000			-10.287			-3.429
215905.000			-10.286			-3.429
216004.000			-10.286			-3.429
216104.000			-10.287			-3.429
216205.000			-10.286			-3.429
216303.000			-10.286			-3.429
216404.000			-10.286			-3.429
216505.000			-10.285			-3.428
216604.000			-10.286			-3.429
216704.000			-10.286			-3.429
216805.000			-10.286			-3.429
216904.000			-10.286			-3.429
217003.000			-10.285			-3.428
217105.000			-10.285			-3.428
217203.000			-10.285			-3.428
217304.000			-10.285			-3.428
217405.000			-10.286			-3.429
217504.000			-10.285			-3.428
217604.000			-10.284			-3.428
217705.000			-10.284			-3.428
217804.000			-10.286			-3.429
217903.000			-10.285			-3.428
218005.000			-10.284			-3.428
218104.000			-10.284			-3.428
218205.000			-10.285			-3.428
218304.000			-10.284			-3.428
218404.000			-10.284			-3.428
218505.000			-10.284			-3.428
218604.000			-10.283			-3.428
218704.000			-10.283			-3.428
218804.000			-10.283			-3.428
218904.000			-10.283			-3.428
219004.000			-10.283			-3.428
219105.000			-10.283			-3.428
219204.000			-10.283			-3.428
219304.000			-10.283			-3.428
219405.000			-10.282			-3.427
219504.000			-10.282			-3.427
219604.000			-10.282			-3.427
219704.000			-10.283			-3.428
219804.000			-10.283			-3.428
219904.000			-10.283			-3.428
220005.000			-10.283			-3.428
220104.000			-10.282			-3.427
220204.000			-10.281			-3.427
220305.000			-10.282			-3.427
220403.000			-10.283			-3.428
220504.000			-10.282			-3.427
220605.000			-10.281			-3.427
220704.000			-10.281			-3.427
220804.000			-10.281			-3.427
220905.000			-10.282			-3.427
221004.000			-10.282			-3.427
221104.000			-10.282			-3.427
221205.000			-10.282			-3.427
221303.000			-10.281			-3.427
221405.000			-10.281			-3.427
221504.000			-10.281			-3.427
221604.000			-10.281			-3.427
221705.000			-10.280			-3.427
221804.000			-10.281			-3.427
221904.000			-10.280			-3.427
222004.000			-10.279			-3.426
222104.000			-10.280			-3.427
222203.000			-10.279			-3.426
222305.000			-10.278			-3.426
222404.000			-10.280			-3.427
222504.000			-10.280			-3.427
222605.000			-10.280			-3.427
222704.000			-10.280			-3.427
222804.000			-10.280			-3.427
222904.000			-10.278			-3.426
223004.000			-10.278			-3.426
223104.000			-10.279			-3.426
223205.000			-10.279			-3.426
223304.000			-10.279			-3.426
223404.000			-10.279			-3.426
223505.000			-10.279			-3.426
223604.000			-10.279			-3.426
223704.000			-10.279			-3.426
223804.000			-10.278			-3.426
223904.000			-10.279			-3.426
224004.000			-10.279			-3.426
224105.000			-10.278			-3.426
224204.000			-10.278			-3.426
224304.000			-10.278			-3.426
224405.000			-10.278			-3.426
224503.000			-10.277			-3.426
224605.000			-10.278			-3.426
224703.000			-10.278			-3.426
224804.000			-10.277			-3.426
224905.000			-10.276			-3.425
225004.000			-10.277			-3.426
225104.000			-10.278			-3.426
225205.000			-10.278			-3.426
225304.000			-10.276			-3.425
225403.000			-10.277			-3.426
225505.000			-10.277			-3.426
225604.000			-10.277			-3.426
225704.000			-10.276			-3.425
225805.000			-10.275			-3.425
225904.000			-10.277			-3.426
226004.000			-10.276			-3.425
226105.000			-10.276			-3.425
226204.000			-10.276			-3.425
226303.000			-10.277			-3.426
226405.000			-10.277			-3.426
226504.000			-10.276			-3.425
226604.000			-10.276			-3.425
226705.000			-10.276			-3.425
226804.000			-10.275			-3.425
226904.000			-10.275			-3.425
227005.000			-10.275			-3.425
227104.000			-10.276			-3.425
227203.000			-10.274			-3.425
227305.000			-10.275			-3.425
227404.000			-10.274			-3.425
227504.000			-10.275			-3.425
227605.000			-10.275			-3.425
227704.000			-10.274			-3.425
227805.000			-10.274			-3.425
227904.000			-10.273			-3.424
228004.000			-10.274			-3.425
228104.000			-10.273			-3.424
228204.000			-10.273			-3.424
228304.000			-10.273			-3.424
228405.000			-10.274			-3.425
228504.000			-10.274			-3.425
228604.000			-10.274			-3.425
228705.000			-10.274			-3.425
228804.000			-10.274			-3.425
228904.000			-10.274			-3.425
229004.000			-10.275			-3.425
229104.000			-10.274			-3.425
229204.000			-10.274			-3.425
229305.000			-10.274			-3.425
229404.000			-10.273			-3.424
229504.000			-10.272			-3.424
229605.000			-10.273			-3.424
229704.000			-10.273			-3.424
229804.000			-10.273			-3.424
229904.000			-10.273			-3.424
230004.000			-10.273			-3.424
230104.000			-10.273			-3.424
230205.000			-10.273			-3.424
230304.000			-10.272			-3.424
230404.000			-10.272			-3.424
230505.000			-10.271			-3.424
230603.000			-10.271			-3.424
230704.000			-10.271			-3.424
230805.000			-10.271			-3.424
230904.000			-10.271			-3.424
231005.000			-10.271			-3.424
231104.000			-10.271			-3.424
231204.000			-10.271			-3.424
231305.000			-10.270			-3.423
231404.000			-10.270			-3.423
231503.000			-10.270			-3.423
231605.000			-10.272			-3.424
231704.000			-10.270			-3.423
231804.000			-10.270			-3.423
231905.000			-10.271			-3.424
232004.000			-10.270			-3.423
232104.000			-10.270			-3.423
232204.000			-10.270			-3.423
232304.000			-10.270			-3.423
232404.000			-10.269			-3.423
232505.000			-10.269			-3.423
232604.000			-10.269			-3.423
232704.000			-10.269			-3.423
232805.000			-10.269			-3.423
232904.000			-10.269			-3.423
233004.000			-10.269			-3.423
233104.000			-10.268			-3.423
233204.000			-10.268			-3.423
233304.000			-10.268			-3.423
233405.000			-10.268			-3.423
233504.000			-10.269			-3.423
233604.000			-10.269			-3.423
233705.000			-10.268			-3.423
233804.000			-10.268			-3.423
233904.000			-10.267			-3.422
234004.000			-10.268			-3.423
234104.000			-10.268			-3.423
234205.000			-10.267			-3.422
234304.000			-10.268			-3.423
234404.000			-10.268			-3.423
234505.000			-10.267			-3.422
234604.000			-10.267			-3.422
234704.000			-10.267			-3.422
234805.000			-10.267			-3.422
234903.000			-10.267			-3.422
235004.000			-10.266			-3.422
235105.000			-10.267			-3.422
235204.000			-10.266			-3.422
235304.000			-10.266			-3.422
235405.000			-10.267			-3.422
235504.000			-10.267			-3.422
235603.000			-10.266			-3.422
235705.000			-10.266			-3.422
235803.000			-10.266			-3.422
235904.000			-10.266			-3.422
236005.000			-10.265			-3.422
236104.000			-10.266			-3.422
236204.000			-10.266			-3.422
236305.000			-10.265			-3.422
236404.000			-10.265			-3.422
236503.000			-10.265			-3.422
236605.000			-10.264			-3.421
236704.000			-10.266			-3.422
236804.000			-10.264			-3.421
236905.000			-10.265			-3.422
237004.000			-10.265			-3.422
237104.000			-10.264			-3.421
237205.000			-10.265			-3.422
237304.000			-10.265			-3.422
237403.000			-10.265			-3.422
237504.000			-10.264			-3.421
237604.000			-10.264			-3.421
237705.000			-10.264			-3.421
237804.000			-10.264			-3.421
237904.000			-10.263			-3.421
238005.000			-10.263			-3.421
238104.000			-10.263			-3.421
238204.000			-10.262			-3.421
238304.000			-10.264			-3.421
238404.000			-10.264			-3.421
238504.000			-10.263			-3.421
238605.000			-10.264			-3.421
238704.000			-10.264			-3.421
238804.000			-10.264			-3.421
238905.000			-10.264			-3.421
239003.000			-10.263			-3.421
239104.000			-10.263			-3.421
239205.000			-10.262			-3.421
239304.000			-10.262			-3.421
239404.000			-10.263			-3.421
239505.000			-10.263			-3.421
239604.000			-10.262			-3.421
239704.000			-10.263			-3.421
239805.000			-10.262			-3.421
239903.000			-10.262			-3.421
240004.000			-10.262			-3.421
240105.000			-10.262			-3.421
240204.000			-10.261			-3.420
240304.000			-10.261			-3.420
240405.000			-10.262			-3.421
240504.000			-10.262			-3.421
240603.000			-10.262			-3.421
240704.000			-10.262			-3.421
240803.000			-10.261			-3.420
240905.000			-10.261			-3.420
241004.000			-10.262			-3.421
241104.000			-10.261			-3.420
241205.000			-10.260			-3.420
241304.000			-10.260			-3.420
241404.000			-10.260			-3.420
241504.000			-10.261			-3.420
241604.000			-10.261			-3.420
241704.000			-10.260			-3.420
241805.000			-10.261			-3.420
241904.000			-10.260			-3.420
242004.000			-10.260			-3.420
242105.000			-10.260			-3.420
242203.000			-10.260			-3.420
242304.000			-10.261			-3.420
242405.000			-10.260			-3.420
242504.000			-10.259			-3.420
242604.000			-10.259			-3.420
242705.000			-10.259			-3.420
242804.000			-10.259			-3.420
242904.000			-10.259			-3.420
243005.000			-10.258			-3.419
243103.000			-10.260			-3.420
243204.000			-10.259			-3.420
243305.000			-10.259			-3.420
243404.000			-10.258			-3.419
243504.000			-10.259			-3.420
243605.000			-10.259			-3.420
243704.000			-10.259			-3.420
243805.000			-10.259			-3.420
243904.000			-10.258			-3.419
244003.000			-10.258			-3.419
244105.000			-10.259			-3.420
244204.000			-10.259			-3.420
244304.000			-10.257			-3.419
244405.000			-10.257			-3.419
244504.000			-10.258			-3.419
244604.000			-10.258			-3.419
244704.000			-10.257			-3.419
244804.000			-10.258			-3.419
244903.000			-10.258			-3.419
245005.000			-10.258			-3.419
245104.000			-10.257			-3.419
245204.000			-10.257			-3.419
245305.000			-10.258			-3.419
245404.000			-10.258			-3.419
245504.000			-10.257			-3.419
245604.000			-10.256			-3.419
245704.000			-10.256			-3.419
245804.000			-10.256			-3.419
245905.000			-10.256			-3.419
246004.000			-10.256			-3.419
246104.000			-10.257			-3.419
246205.000			-10.256			-3.419
246304.000			-10.255			-3.418
246404.000			-10.256			-3.419
246504.000			-10.256			-3.419
246604.000			-10.255			-3.418
246704.000			-10.256			-3.419
246805.000			-10.255			-3.418
246904.000			-10.256			-3.419
247005.000			-10.256			-3.419
247104.000			-10.257			-3.419
247204.000			-10.256			-3.419
247305.000			-10.255			-3.418
247403.000			-10.255			-3.418
247504.000			-10.254			-3.418
247605.000			-10.255			-3.418
247704.000			-10.255			-3.418
247804.000			-10.254			-3.418
247905.000			-10.254			-3.418
248004.000			-10.254			-3.418
248104.000			-10.254			-3.418
248205.000			-10.254			-3.418
248303.000			-10.254			-3.418
248404.000			-10.255			-3.418
248505.000			-10.254			-3.418
248604.000			-10.254			-3.418
248704.000			-10.254			-3.418
248805.000			-10.254			-3.418
248904.000			-10.254			-3.418
249003.000			-10.254			-3.418
249105.000			-10.255			-3.418
249203.000			-10.253			-3.418
249304.000			-10.252			-3.417
249405.000			-10.253			-3.418
249504.000			-10.253			-3.418
249604.000			-10.253			-3.418
249705.000			-10.253			-3.418
249804.000			-10.252			-3.417
249903.000			-10.252			-3.417
250005.000			-10.253			-3.418
250104.000			-10.252			-3.417
250205.000			-10.252			-3.417
250304.000			-10.252			-3.417
250404.000			-10.253			-3.418
250505.000			-10.252			-3.417
250604.000			-10.251			-3.417
250704.000			-10.251			-3.417
250804.000			-10.252			-3.417
250904.000			-10.252			-3.417
251004.000			-10.251			-3.417
251105.000			-10.251			-3.417
251204.000			-10.252			-3.417
251304.000			-10.250			-3.417
251405.000			-10.250			-3.417
251503.000			-10.251			-3.417
251604.000			-10.251			-3.417
251705.000			-10.251			-3.417
251804.000			-10.252			-3.417
251904.000			-10.250			-3.417
252005.000			-10.251			-3.417
252104.000			-10.251			-3.417
252203.000			-10.250			-3.417
252305.000			-10.250			-3.417
252404.000			-10.250			-3.417
252504.000			-10.250			-3.417
252605.000			-10.250			-3.417
252704.000			-10.250			-3.417
252804.000			-10.250			-3.417
252905.000			-10.251			-3.417
253004.000			-10.250			-3.417
253103.000			-10.249			-3.416
253205.000			-10.250			-3.417
253304.000			-10.249			-3.416
253405.000			-10.250			-3.417
253504.000			-10.250			-3.417
253604.000			-10.249			-3.416
253705.000			-10.248			-3.416
253804.000			-10.249			-3.416
253904.000			-10.249			-3.416
254004.000			-10.249			-3.416
254104.000			-10.249			-3.416
254204.000			-10.249			-3.416
254305.000			-10.249			-3.416
254404.000			-10.250			-3.417
254504.000			-10.249			-3.416
254605.000			-10.248			-3.416
254704.000			-10.248			-3.416
254804.000			-10.247			-3.416
254904.000			-10.248			-3.416
255004.000			-10.248			-3.416
255104.000			-10.248			-3.416
255205.000			-10.248			-3.416
255304.000			-10.248			-3.416
255404.000			-10.247			-3.416
255505.000			-10.248			-3.416
255604.000			-10.247			-3.416
255704.000			-10.247			-3.416
255804.000			-10.247			-3.416
255904.000			-10.247			-3.416
256004.000			-10.247			-3.416
256105.000			-10.246			-3.415
256204.000			-10.246			-3.415
256304.000			-10.247			-3.416
256405.000			-10.246			-3.415
256503.000			-10.246			-3.415
256605.000			-10.246			-3.415
256703.000			-10.246			-3.415
256804.000			-10.247			-3.416
256905.000			-10.246			-3.415
257004.000			-10.246			-3.415
257104.000			-10.246			-3.415
257205.000			-10.247			-3.416
257304.000			-10.245			-3.415
257403.000			-10.245			-3.415
257505.000			-10.245			-3.415
257603.000			-10.245			-3.415
257704.000			-10.244			-3.415
257805.000			-10.245			-3.415
257904.000			-10.245			-3.415
258004.000			-10.244			-3.415
258105.000			-10.244			-3.415
258204.000			-10.245			-3.415
258303.000			-10.246			-3.415
258405.000			-10.244			-3.415
258504.000			-10.244			-3.415
258604.000			-10.244			-3.415
258705.000			-10.243			-3.414
258804.000			-10.243			-3.414
258904.000			-10.244			-3.415
259005.000			-10.244			-3.415
259104.000			-10.244			-3.415
259203.000			-10.244			-3.415
259305.000			-10.243			-3.414
259404.000			-10.244			-3.415
259504.000			-10.244			-3.415
259605.000			-10.243			-3.414
259704.000			-10.243			-3.414
259805.000			-10.242			-3.414
259904.000			-10.243			-3.414
260004.000			-10.244			-3.415
260104.000			-10.243			-3.414
260204.000			-10.243			-3.414
260304.000			-10.243			-3.414
260405.000			-10.243			-3.414
260504.000			-10.243			-3.414
260604.000			-10.242			-3.414
260705.000			-10.241			-3.414
260803.000			-10.242			-3.414
260904.000			-10.242			-3.414
261005.000			-10.242			-3.414
261104.000			-10.242			-3.414
261204.000			-10.241			-3.414
261305.000			-10.241			-3.414
261404.000			-10.242			-3.414
261504.000			-10.241			-3.414
261605.000			-10.241			-3.414
261703.000			-10.241			-3.414
261804.000			-10.241			-3.414
261905.000			-10.241			-3.414
262004.000			-10.240			-3.413
262104.000			-10.240			-3.413
262205.000			-10.241			-3.414
262304.000			-10.241			-3.414
262403.000			-10.240			-3.413
262505.000			-10.241			-3.414
262604.000			-10.240			-3.413
262704.000			-10.239			-3.413
262805.000			-10.240			-3.413
262904.000			-10.240			-3.413
263005.000			-10.241			-3.414
263104.000			-10.241			-3.414
263204.000			-10.241			-3.414
263304.000			-10.241			-3.414
263404.000			-10.240			-3.413
263504.000			-10.240			-3.413
263605.000			-10.240			-3.413
263704.000			-10.239			-3.413
263804.000			-10.239			-3.413
263905.000			-10.239			-3.413
264003.000			-10.239			-3.413
264104.000			-10.240			-3.413
264205.000			-10.239			-3.413
264304.000			-10.239			-3.413
264404.000			-10.238			-3.413
264505.000			-10.238			-3.413
264604.000			-10.238			-3.413
264704.000			-10.239			-3.413
264805.000			-10.239			-3.413
264903.000			-10.238			-3.413
265004.000			-10.238			-3.413
265105.000			-10.239			-3.413
265204.000			-10.239			-3.413
265304.000			-10.239			-3.413
265405.000			-10.237			-3.412
265504.000			-10.236			-3.412
265604.000			-10.237			-3.412
265705.000			-10.238			-3.413
265803.000			-10.238			-3.413
265904.000			-10.238			-3.413
266005.000			-10.238			-3.413
266104.000			-10.238			-3.413
266205.000			-10.238			-3.413
266304.000			-10.237			-3.412
266404.000			-10.238			-3.413
266504.000			-10.238			-3.413
266604.000			-10.237			-3.412
266703.000			-10.237			-3.412
266805.000			-10.237			-3.412
266904.000			-10.237			-3.412
267004.000			-10.238			-3.413
267105.000			-10.237			-3.412
267204.000			-10.236			-3.412
267304.000			-10.237			-3.412
267404.000			-10.236			-3.412
267504.000			-10.236			-3.412
267604.000			-10.236			-3.412
267705.000			-10.235			-3.412
267804.000			-10.237			-3.412
267904.000			-10.236			-3.412
268005.000			-10.236			-3.412
268104.000			-10.236			-3.412
268204.000			-10.236			-3.412
268304.000			-10.236			-3.412
268404.000			-10.236			-3.412
268504.000			-10.236			-3.412
268605.000			-10.235			-3.412
268704.000			-10.235			-3.412
268804.000			-10.235			-3.412
268905.000			-10.235			-3.412
269004.000			-10.236			-3.412
269104.000			-10.235			-3.412
269204.000			-10.235			-3.412
269304.000			-10.234			-3.411
269405.000			-10.235			-3.412
269504.000			-10.235			-3.412
269604.000			-10.236			-3.412
269705.000			-10.235			-3.412
269804.000			-10.234			-3.411
269904.000			-10.234			-3.411
270005.000			-10.234			-3.411
270103.000			-10.235			-3.412
270204.000			-10.233			-3.411
270305.000			-10.233			-3.411
270404.000			-10.233			-3.411
270504.000			-10.234			-3.411
270605.000			-10.234			-3.411
270704.000			-10.234			-3.411
270803.000			-10.233			-3.411
270905.000			-10.233			-3.411
271004.000			-10.233			-3.411
271104.000			-10.234			-3.411
271205.000			-10.233			-3.411
271304.000			-10.233			-3.411
271404.000			-10.233			-3.411
271504.000			-10.233			-3.411
271604.000			-10.233			-3.411
271703.000			-10.232			-3.411
271805.000			-10.233			-3.411
271904.000			-10.233			-3.411
272004.000			-10.234			-3.411
272105.000			-10.233			-3.411
272204.000			-10.233			-3.411
272304.000			-10.232			-3.411
272404.000			-10.232			-3.411
272504.000			-10.232			-3.411
272605.000			-10.232			-3.411
272704.000			-10.232			-3.411
272804.000			-10.231			-3.410
272905.000			-10.231			-3.410
273004.000			-10.232			-3.411
273103.000			-10.233			-3.411
273205.000			-10.232			-3.411
273303.000			-10.232			-3.411
273404.000			-10.231			-3.410
273505.000			-10.231			-3.410
273604.000			-10.231			-3.410
273704.000			-10.231			-3.410
273805.000			-10.231			-3.410
273904.000			-10.231			-3.410
274003.000			-10.231			-3.410
274105.000			-10.231			-3.410
274204.000			-10.230			-3.410
274304.000			-10.231			-3.410
274405.000			-10.230			-3.410
274504.000			-10.230			-3.410
274604.000			-10.229			-3.410
274704.000			-10.229			-3.410
274804.000			-10.228			-3.409
274903.000			-10.230			-3.410
275005.000			-10.231			-3.410
275104.000			-10.230			-3.410
275204.000			-10.230			-3.410
275305.000			-10.228			-3.409
275404.000			-10.230			-3.410
275504.000			-10.230			-3.410
275604.000			-10.229			-3.410
275704.000			-10.228			-3.409
275805.000			-10.229			-3.410
275904.000			-10.229			-3.410
276004.000			-10.229			-3.410
276105.000			-10.229			-3.410
276204.000			-10.229			-3.410
276304.000			-10.229			-3.410
276405.000			-10.227			-3.409
276503.000			-10.228			-3.409
276604.000			-10.229			-3.410
276705.000			-10.228			-3.409
276804.000			-10.229			-3.410
276904.000			-10.228			-3.409
277005.000			-10.228			-3.409
277104.000			-10.227			-3.409
277204.000			-10.227			-3.409
277305.000			-10.228			-3.409
277403.000			-10.228			-3.409
277504.000			-10.228			-3.409
277605.000			-10.228			-3.409
277704.000			-10.228			-3.409
277804.000			-10.228			-3.409
277905.000			-10.226			-3.409
278004.000			-10.227			-3.409
278104.000			-10.227			-3.409
278205.000			-10.227			-3.409
278303.000			-10.226			-3.409
278404.000			-10.227			-3.409
278505.000			-10.226			-3.409
278604.000			-10.226			-3.409
278704.000			-10.226			-3.409
278805.000			-10.226			-3.409
278904.000			-10.227			-3.409
279005.000			-10.228			-3.409
279104.000			-10.227			-3.409
279203.000			-10.227			-3.409
279305.000			-10.227			-3.409
279404.000			-10.227			-3.409
279504.000			-10.226			-3.409
279605.000			-10.226			-3.409
279704.000			-10.225			-3.408
279804.000			-10.225			-3.408
279905.000			-10.226			-3.409
280004.000			-10.226			-3.409
280103.000			-10.226			-3.409
280205.000			-10.227			-3.409
280304.000			-10.225			-3.408
280404.000			-10.226			-3.409
280505.000			-10.226			-3.409
280604.000			-10.225			-3.408
280704.000			-10.225			-3.408
280804.000			-10.225			-3.408
280904.000			-10.225			-3.408
281003.000			-10.225			-3.408
281105.000			-10.225			-3.408
281204.000			-10.224			-3.408
281304.000			-10.225			-3.408
281405.000			-10.225			-3.408
281504.000			-10.225			-3.408
281604.000			-10.225			-3.408
281704.000			-10.225			-3.408
281804.000			-10.224			-3.408
281904.000			-10.224			-3.408
282005.000			-10.224			-3.408
282104.000			-10.223			-3.408
282205.000			-10.223			-3.408
282304.000			-10.224			-3.408
282404.000			-10.224			-3.408
282505.000			-10.223			-3.408
282603.000			-10.223			-3.408
282704.000			-10.224			-3.408
282805.000			-10.222			-3.407
282904.000			-10.222			-3.407
283004.000			-10.223			-3.408
283105.000			-10.224			-3.408
283204.000			-10.223			-3.408
283303.000			-10.223			-3.408
283405.000			-10.223			-3.408
283504.000			-10.223			-3.408
283604.000			-10.223			-3.408
283705.000			-10.222			-3.407
283804.000			-10.223			-3.408
283904.000			-10.223			-3.408
284005.000			-10.223			-3.408
284104.000			-10.221			-3.407
284203.000			-10.222			-3.407
284305.000			-10.222			-3.407
284404.000			-10.222			-3.407
284504.000			-10.221			-3.407
284605.000			-10.222			-3.407
284704.000			-10.222			-3.407
284804.000			-10.223			-3.408
284904.000			-10.222			-3.407
285004.000			-10.222			-3.407
285104.000			-10.222			-3.407
285205.000			-10.222			-3.407
285304.000			-10.221			-3.407
285405.000			-10.220			-3.407
285504.000			-10.220			-3.407
285604.000			-10.220			-3.407
285705.000			-10.221			-3.407
285803.000			-10.221			-3.407
285904.000			-10.220			-3.407
286005.000			-10.220			-3.407
286104.000			-10.220			-3.407
286204.000			-10.221			-3.407
286305.000			-10.220			-3.407
286404.000			-10.219			-3.406
286503.000			-10.219			-3.406
286605.000			-10.219			-3.406
286703.000			-10.219			-3.406
286804.000			-10.220			-3.407
286905.000			-10.220			-3.407
287004.000			-10.220			-3.407
287104.000			-10.219			-3.406
287205.000			-10.220			-3.407
287304.000			-10.220			-3.407
287403.000			-10.220			-3.407
287505.000			-10.220			-3.407
287604.000			-10.219			-3.406
287704.000			-10.220			-3.407
287805.000			-10.220			-3.407
287904.000			-10.220			-3.407
288004.000			-10.219			-3.406
288105.000			-10.219			-3.406
288204.000			-10.219			-3.406
288303.000			-10.219			-3.406
288405.000			-10.218			-3.406
288504.000			-10.219			-3.406
288605.000			-10.219			-3.406
288704.000			-10.218			-3.406
288804.000			-10.218			-3.406
288905.000			-10.218			-3.406
289004.000			-10.219			-3.406
289104.000			-10.218			-3.406
289204.000			-10.218			-3.406
289304.000			-10.218			-3.406
289404.000			-10.217			-3.406
289505.000			-10.217			-3.406
289604.000			-10.217			-3.406
289704.000			-10.217			-3.406
289805.000			-10.218			-3.406
289904.000			-10.217			-3.406
290004.000			-10.217			-3.406
290104.000			-10.216			-3.405
290204.000			-10.217			-3.406
290304.000			-10.217			-3.406
290405.000			-10.216			-3.405
290504.000			-10.217			-3.406
290604.000			-10.217			-3.406
290705.000			-10.217			-3.406
290804.000			-10.217			-3.406
290904.000			-10.217			-3.406
291004.000			-10.216			-3.405
291104.000			-10.217			-3.406
291204.000			-10.217			-3.406
291305.000			-10.217			-3.406
291404.000			-10.215			-3.405
291504.000			-10.215			-3.405
291605.000			-10.216			-3.405
291703.000			-10.215			-3.405
291805.000			-10.215			-3.405
291904.000			-10.215			-3.405
292004.000			-10.215			-3.405
292105.000			-10.215			-3.405
292204.000			-10.215			-3.405
292304.000			-10.215			-3.405
292405.000			-10.215			-3.405
292504.000			-10.215			-3.405
292603.000			-10.215			-3.405
292705.000			-10.215			-3.405
292804.000			-10.214			-3.405
292904.000			-10.214			-3.405
293005.000			-10.213			-3.404
293104.000			-10.214			-3.405
293204.000			-10.214			-3.405
293304.000			-10.214			-3.405
293404.000			-10.214			-3.405
293504.000			-10.214			-3.405
293605.000			-10.212			-3.404
293704.000			-10.213			-3.404
293804.000			-10.213			-3.404
293905.000			-10.214			-3.405
294004.000			-10.214			-3.405
294104.000			-10.214			-3.405
294204.000			-10.213			-3.404
294304.000			-10.213			-3.404
294404.000			-10.213			-3.404
294505.000			-10.213			-3.404
294604.000			-10.213			-3.404
294704.000			-10.213			-3.404
294805.000			-10.213			-3.404
294903.000			-10.213			-3.404
295005.000			-10.212			-3.404
295103.000			-10.213			-3.404
295204.000			-10.212			-3.404
295305.000			-10.212			-3.404
295404.000			-10.212			-3.404
295504.000			-10.212			-3.404
295605.000			-10.212			-3.404
295704.000			-10.212			-3.404
295803.000			-10.212			-3.404
295905.000			-10.212			-3.404
296004.000			-10.212			-3.404
296104.000			-10.213			-3.404
296205.000			-10.212			-3.404
296304.000			-10.211			-3.404
296404.000			-10.210			-3.403
296505.000			-10.211			-3.404
296604.000			-10.212			-3.404
296703.000			-10.211			-3.404
296805.000			-10.210			-3.403
296904.000			-10.210			-3.403
297004.000			-10.211			-3.404
297105.000			-10.211			-3.404
297204.000			-10.211			-3.404
297304.000			-10.210			-3.403
297404.000			-10.210			-3.403
297504.000			-10.211			-3.404
297603.000			-10.210			-3.403
297705.000			-10.210			-3.403
297804.000			-10.210			-3.403
297904.000			-10.210			-3.403
298005.000			-10.210			-3.403
298104.000			-10.210			-3.403
298205.000			-10.210			-3.403
298303.000			-10.210			-3.403
298404.000			-10.209			-3.403
298505.000			-10.209			-3.403
298604.000			-10.209			-3.403
298704.000			-10.211			-3.404
298805.000			-10.210			-3.403
298904.000			-10.210			-3.403
299004.000			-10.210			-3.403
299105.000			-10.209			-3.403
299203.000			-10.209			-3.403
299304.000			-10.209			-3.403
299405.000			-10.209			-3.403
299504.000			-10.209			-3.403
299604.000			-10.209			-3.403
299705.000			-10.209			-3.403
299804.000			-10.208			-3.403
299904.000			-10.207			-3.402
