# Acquired on 25/01/2024 11:20:41 
# SPIDER: Creep_4mm_GRPCNT1454A-3
# CREEP MEASUREMENT

# time [ms]		force [N]		stiffness [N/mm]
1.000			-16.815			-4.204
104.000			-17.536			-4.384
204.000			-17.651			-4.413
305.000			-17.509			-4.377
404.000			-17.275			-4.319
504.000			-17.192			-4.298
605.000			-17.121			-4.280
704.000			-17.059			-4.265
804.000			-17.003			-4.251
905.000			-16.954			-4.239
1004.000			-16.909			-4.227
1105.000			-16.868			-4.217
1203.000			-16.796			-4.199
1304.000			-16.762			-4.190
1405.000			-16.732			-4.183
1504.000			-16.704			-4.176
1604.000			-16.676			-4.169
1705.000			-16.650			-4.163
1804.000			-16.627			-4.157
1903.000			-16.583			-4.146
2005.000			-16.562			-4.141
2104.000			-16.542			-4.136
2204.000			-16.523			-4.131
2305.000			-16.504			-4.126
2403.000			-16.488			-4.122
2504.000			-16.470			-4.118
2605.000			-16.438			-4.110
2704.000			-16.422			-4.106
2804.000			-16.408			-4.102
2905.000			-16.395			-4.099
3004.000			-16.381			-4.095
3103.000			-16.367			-4.092
3205.000			-16.354			-4.088
3304.000			-16.330			-4.082
3404.000			-16.318			-4.079
3505.000			-16.306			-4.076
3603.000			-16.295			-4.074
3704.000			-16.283			-4.071
3805.000			-16.272			-4.068
3904.000			-16.262			-4.065
4004.000			-16.252			-4.063
4104.000			-16.232			-4.058
4204.000			-16.222			-4.056
4304.000			-16.213			-4.053
4404.000			-16.204			-4.051
4504.000			-16.195			-4.049
4605.000			-16.185			-4.046
4704.000			-16.176			-4.044
4804.000			-16.162			-4.040
4905.000			-16.153			-4.038
5003.000			-16.144			-4.036
5104.000			-16.135			-4.034
5205.000			-16.128			-4.032
5304.000			-16.120			-4.030
5404.000			-16.112			-4.028
5504.000			-16.099			-4.025
5604.000			-16.092			-4.023
5704.000			-16.085			-4.021
5805.000			-16.077			-4.019
5904.000			-16.071			-4.018
6004.000			-16.065			-4.016
6105.000			-16.058			-4.015
6203.000			-16.052			-4.013
6304.000			-16.038			-4.010
6405.000			-16.033			-4.008
6504.000			-16.027			-4.007
6604.000			-16.021			-4.005
6704.000			-16.014			-4.004
6804.000			-16.009			-4.002
6904.000			-16.003			-4.001
7005.000			-15.992			-3.998
7104.000			-15.987			-3.997
7204.000			-15.981			-3.995
7305.000			-15.976			-3.994
7403.000			-15.971			-3.993
7505.000			-15.966			-3.991
7604.000			-15.960			-3.990
7704.000			-15.951			-3.988
7805.000			-15.945			-3.986
7904.000			-15.941			-3.985
8004.000			-15.935			-3.984
8104.000			-15.930			-3.983
8204.000			-15.925			-3.981
8304.000			-15.921			-3.980
8405.000			-15.912			-3.978
8504.000			-15.908			-3.977
8603.000			-15.903			-3.976
8705.000			-15.898			-3.974
8804.000			-15.894			-3.974
8904.000			-15.890			-3.973
9005.000			-15.885			-3.971
9104.000			-15.881			-3.970
9204.000			-15.873			-3.968
9304.000			-15.868			-3.967
9404.000			-15.864			-3.966
9504.000			-15.860			-3.965
9605.000			-15.856			-3.964
9704.000			-15.852			-3.963
9804.000			-15.848			-3.962
9905.000			-15.840			-3.960
10003.000			-15.837			-3.959
10104.000			-15.833			-3.958
10205.000			-15.830			-3.957
10304.000			-15.826			-3.957
10404.000			-15.822			-3.956
10504.000			-15.818			-3.954
10604.000			-15.810			-3.953
10704.000			-15.807			-3.952
10804.000			-15.804			-3.951
10904.000			-15.800			-3.950
11005.000			-15.795			-3.949
11104.000			-15.792			-3.948
11204.000			-15.789			-3.947
11305.000			-15.787			-3.947
11403.000			-15.779			-3.945
11504.000			-15.776			-3.944
11605.000			-15.773			-3.943
11704.000			-15.769			-3.942
11804.000			-15.766			-3.942
11905.000			-15.763			-3.941
12004.000			-15.760			-3.940
12103.000			-15.754			-3.938
12205.000			-15.751			-3.938
12304.000			-15.747			-3.937
12404.000			-15.744			-3.936
12505.000			-15.740			-3.935
12604.000			-15.738			-3.935
12704.000			-15.735			-3.934
12804.000			-15.730			-3.932
12904.000			-15.727			-3.932
13004.000			-15.724			-3.931
13105.000			-15.721			-3.930
13204.000			-15.719			-3.930
13304.000			-15.715			-3.929
13405.000			-15.711			-3.928
13503.000			17.104			4.276
13604.000			109.983			27.496
13705.000			-15.701			-3.925
13804.000			-15.698			-3.925
13905.000			-15.696			-3.924
14004.000			-15.693			-3.923
14104.000			-15.690			-3.922
14204.000			-15.687			-3.922
14304.000			-15.683			-3.921
14404.000			-15.681			-3.920
14505.000			-15.677			-3.919
14604.000			-15.675			-3.919
14703.000			-15.672			-3.918
14805.000			-15.670			-3.917
14904.000			-15.667			-3.917
15004.000			-15.662			-3.916
15105.000			-15.660			-3.915
15204.000			-15.656			-3.914
15304.000			-15.654			-3.914
15404.000			-15.651			-3.913
15504.000			-15.649			-3.912
15604.000			-15.646			-3.912
15705.000			-15.642			-3.911
15804.000			-15.640			-3.910
15904.000			-15.637			-3.909
16005.000			-15.634			-3.909
16103.000			-15.632			-3.908
16204.000			-15.630			-3.908
16305.000			-15.628			-3.907
16404.000			-15.626			-3.906
16504.000			-15.622			-3.905
16605.000			-15.619			-3.905
16704.000			-15.617			-3.904
16803.000			-15.615			-3.904
16905.000			-15.612			-3.903
17004.000			-15.610			-3.903
17105.000			-15.608			-3.902
17204.000			-15.604			-3.901
17304.000			-15.602			-3.900
17405.000			-15.599			-3.900
17503.000			-15.597			-3.899
17604.000			-15.595			-3.899
17705.000			-15.594			-3.898
17804.000			-15.591			-3.898
17904.000			-15.587			-3.897
18005.000			-15.585			-3.896
18104.000			-15.582			-3.895
18203.000			-15.580			-3.895
18305.000			-15.578			-3.894
18404.000			-15.576			-3.894
18504.000			-15.575			-3.894
18605.000			-15.571			-3.893
18704.000			-15.569			-3.892
18804.000			-15.567			-3.892
18904.000			-15.564			-3.891
19004.000			-15.563			-3.891
19104.000			-15.561			-3.890
19205.000			-15.559			-3.890
19304.000			-15.557			-3.889
19404.000			-15.554			-3.888
19505.000			-15.551			-3.888
19603.000			-15.549			-3.887
19704.000			-15.548			-3.887
19805.000			-15.546			-3.886
19904.000			-15.544			-3.886
20004.000			-15.543			-3.886
20104.000			-15.539			-3.885
20204.000			-15.535			-3.884
20304.000			-15.534			-3.883
20404.000			-15.533			-3.883
20504.000			-15.531			-3.883
20605.000			-15.529			-3.882
20704.000			-15.528			-3.882
20804.000			-15.523			-3.881
20905.000			-15.521			-3.880
21003.000			-15.520			-3.880
21104.000			-15.518			-3.879
21205.000			-15.516			-3.879
21304.000			-15.515			-3.879
21404.000			-15.514			-3.878
21505.000			-15.512			-3.878
21604.000			-15.508			-3.877
21703.000			-15.506			-3.877
21805.000			-15.504			-3.876
21904.000			-15.503			-3.876
22004.000			-15.502			-3.875
22105.000			-15.500			-3.875
22204.000			-15.498			-3.874
22304.000			-15.494			-3.874
22404.000			-15.492			-3.873
22504.000			-15.489			-3.872
22604.000			-15.487			-3.872
22705.000			-15.486			-3.872
22804.000			-15.484			-3.871
22904.000			-15.483			-3.871
23005.000			-15.479			-3.870
23103.000			-15.479			-3.870
23204.000			-15.478			-3.869
23305.000			-15.475			-3.869
23404.000			-15.473			-3.868
23505.000			-15.473			-3.868
23604.000			-15.471			-3.868
23704.000			-15.468			-3.867
23804.000			-15.466			-3.866
23904.000			-15.465			-3.866
24004.000			-15.463			-3.866
24105.000			-15.461			-3.865
24204.000			-15.459			-3.865
24303.000			-15.458			-3.864
24405.000			-15.457			-3.864
24504.000			-15.453			-3.863
24604.000			-15.452			-3.863
24705.000			-15.451			-3.863
24804.000			-15.450			-3.863
24904.000			-15.448			-3.862
25004.000			-15.446			-3.861
25104.000			-15.445			-3.861
25204.000			-15.442			-3.860
25305.000			-15.440			-3.860
25404.000			-15.440			-3.860
25504.000			-15.438			-3.859
25605.000			-15.437			-3.859
25703.000			-15.435			-3.859
25804.000			-15.433			-3.858
25905.000			-15.431			-3.858
26004.000			-15.430			-3.857
26104.000			-15.427			-3.857
26205.000			-15.426			-3.856
26304.000			-15.424			-3.856
26403.000			-15.423			-3.856
26505.000			-15.422			-3.855
26604.000			-15.421			-3.855
26705.000			-15.418			-3.854
26804.000			-15.417			-3.854
26904.000			-15.415			-3.854
27005.000			-15.412			-3.853
27103.000			-15.412			-3.853
27204.000			-15.412			-3.853
27305.000			-15.410			-3.852
27404.000			-15.406			-3.851
27504.000			-15.405			-3.851
27605.000			-15.404			-3.851
27704.000			-15.404			-3.851
27803.000			-15.402			-3.851
27905.000			-15.401			-3.850
28004.000			-15.401			-3.850
28104.000			-15.397			-3.849
28205.000			-15.395			-3.849
28304.000			-15.394			-3.849
28404.000			-15.392			-3.848
28504.000			-15.391			-3.848
28604.000			-15.390			-3.847
28704.000			-15.389			-3.847
28805.000			-15.388			-3.847
28904.000			-15.385			-3.846
29004.000			-15.383			-3.846
29105.000			-15.384			-3.846
29203.000			-15.382			-3.845
29304.000			-15.380			-3.845
29405.000			-15.378			-3.845
29504.000			-15.377			-3.844
29604.000			-15.376			-3.844
29704.000			-15.375			-3.844
29804.000			-15.373			-3.843
29904.000			-15.371			-3.843
30004.000			-15.370			-3.842
30104.000			-15.370			-3.842
30205.000			-15.369			-3.842
30304.000			-15.366			-3.841
30404.000			-15.364			-3.841
30505.000			-15.363			-3.841
30603.000			-15.361			-3.840
30704.000			-15.361			-3.840
30805.000			-15.359			-3.840
30904.000			-15.358			-3.839
31004.000			-15.357			-3.839
31104.000			-15.355			-3.839
31204.000			-15.354			-3.838
31303.000			-15.352			-3.838
31405.000			-15.351			-3.838
31504.000			-15.350			-3.837
31604.000			-15.349			-3.837
31705.000			-15.349			-3.837
31803.000			-15.346			-3.836
31904.000			-15.343			-3.836
32005.000			-15.343			-3.836
32104.000			-15.342			-3.836
32204.000			-15.341			-3.835
32305.000			-15.339			-3.835
32404.000			-15.339			-3.835
32503.000			-15.337			-3.834
32605.000			-15.335			-3.834
32704.000			-15.334			-3.833
32804.000			-15.334			-3.833
32905.000			-15.334			-3.833
33004.000			-15.332			-3.833
33105.000			-15.330			-3.833
33203.000			-15.328			-3.832
33304.000			-15.327			-3.832
33405.000			-15.326			-3.831
33504.000			-15.324			-3.831
33604.000			-15.323			-3.831
33705.000			-15.322			-3.830
33804.000			-15.321			-3.830
33903.000			-15.320			-3.830
34005.000			-15.318			-3.829
34104.000			-15.316			-3.829
34204.000			-15.315			-3.829
34305.000			-15.315			-3.829
34404.000			-15.315			-3.829
34504.000			-15.313			-3.828
34605.000			-15.312			-3.828
34704.000			-15.310			-3.828
34804.000			-15.309			-3.827
34905.000			-15.308			-3.827
35004.000			-15.307			-3.827
35103.000			-15.306			-3.826
35205.000			-15.305			-3.826
35304.000			-15.303			-3.826
35404.000			-15.302			-3.825
35505.000			-15.301			-3.825
35604.000			-15.300			-3.825
35704.000			-15.298			-3.825
35804.000			-15.297			-3.824
35904.000			-15.297			-3.824
36004.000			-15.296			-3.824
36104.000			-15.296			-3.824
36204.000			-15.292			-3.823
36305.000			-15.292			-3.823
36404.000			-15.290			-3.823
36503.000			-15.289			-3.822
36605.000			-15.288			-3.822
36704.000			-15.287			-3.822
36804.000			-15.285			-3.821
36905.000			-15.285			-3.821
37004.000			-15.284			-3.821
37104.000			-15.283			-3.821
37204.000			-15.283			-3.821
37304.000			-15.282			-3.820
37404.000			-15.280			-3.820
37505.000			-15.278			-3.820
37604.000			-15.277			-3.819
37704.000			-15.276			-3.819
37805.000			-15.275			-3.819
37903.000			-15.274			-3.818
38004.000			-15.272			-3.818
38105.000			-15.271			-3.818
38204.000			-15.271			-3.818
38304.000			-15.269			-3.817
38405.000			-15.268			-3.817
38504.000			-15.267			-3.817
38603.000			-15.266			-3.817
38705.000			-15.265			-3.816
38804.000			-15.263			-3.816
38904.000			-15.262			-3.816
39005.000			-15.261			-3.815
39104.000			-15.260			-3.815
39204.000			-15.260			-3.815
39303.000			-15.259			-3.815
39404.000			-15.257			-3.814
39505.000			-15.257			-3.814
39604.000			-15.256			-3.814
39704.000			-15.256			-3.814
39805.000			-15.253			-3.813
39904.000			-15.253			-3.813
40003.000			-15.252			-3.813
40105.000			-15.252			-3.813
40204.000			-15.250			-3.812
40304.000			-15.249			-3.812
40405.000			-15.249			-3.812
40503.000			-15.247			-3.812
40604.000			-15.245			-3.811
40705.000			-15.245			-3.811
40804.000			-15.244			-3.811
40904.000			-15.244			-3.811
41005.000			-15.243			-3.811
41104.000			-15.241			-3.810
41203.000			-15.240			-3.810
41305.000			-15.238			-3.810
41404.000			-15.238			-3.809
41504.000			-15.236			-3.809
41605.000			-15.236			-3.809
41704.000			-15.235			-3.809
41804.000			-15.234			-3.808
41904.000			-15.233			-3.808
42004.000			-15.231			-3.808
42104.000			-15.230			-3.808
42205.000			-15.230			-3.808
42304.000			-15.229			-3.807
42403.000			-15.228			-3.807
42505.000			-15.228			-3.807
42604.000			-15.227			-3.807
42705.000			-15.226			-3.806
42804.000			-15.224			-3.806
42904.000			-15.223			-3.806
43005.000			-15.223			-3.806
43103.000			-15.223			-3.806
43204.000			-15.221			-3.805
43305.000			-15.219			-3.805
43404.000			-15.219			-3.805
43504.000			-15.218			-3.804
43605.000			-15.217			-3.804
43704.000			-15.216			-3.804
43803.000			-15.216			-3.804
43905.000			-15.214			-3.803
44004.000			-15.213			-3.803
44104.000			-15.212			-3.803
44205.000			-15.210			-3.803
44304.000			-15.210			-3.802
44404.000			-15.209			-3.802
44504.000			-15.209			-3.802
44604.000			-15.208			-3.802
44704.000			-15.207			-3.802
44805.000			-15.206			-3.801
44904.000			-15.205			-3.801
45004.000			-15.203			-3.801
45105.000			-15.202			-3.800
45203.000			-15.202			-3.801
45304.000			-15.201			-3.800
45405.000			-15.200			-3.800
45504.000			-15.199			-3.800
45604.000			-15.198			-3.799
45704.000			-15.197			-3.799
45804.000			-15.197			-3.799
45904.000			-15.197			-3.799
46004.000			-15.195			-3.799
46104.000			-15.194			-3.799
46205.000			-15.193			-3.798
46304.000			-15.193			-3.798
46404.000			-15.193			-3.798
46505.000			-15.192			-3.798
46603.000			-15.190			-3.798
46704.000			-15.189			-3.797
46805.000			-15.188			-3.797
46904.000			-15.187			-3.797
47004.000			-15.187			-3.797
47104.000			-15.186			-3.797
47204.000			-15.185			-3.796
47303.000			-15.184			-3.796
47405.000			-15.183			-3.796
47504.000			-15.182			-3.796
47604.000			-15.181			-3.795
47705.000			-15.181			-3.795
47803.000			-15.180			-3.795
47904.000			-15.178			-3.795
48005.000			-15.177			-3.794
48104.000			-15.176			-3.794
48204.000			-15.175			-3.794
48305.000			-15.175			-3.794
48404.000			-15.174			-3.794
48503.000			-15.173			-3.793
48605.000			-15.173			-3.793
48704.000			-15.171			-3.793
48804.000			-15.170			-3.792
48905.000			-15.169			-3.792
49004.000			-15.168			-3.792
49105.000			-15.167			-3.792
49203.000			-15.167			-3.792
49304.000			-15.165			-3.791
49405.000			-15.165			-3.791
49504.000			-15.164			-3.791
49604.000			-15.163			-3.791
49705.000			-15.163			-3.791
49804.000			-15.162			-3.790
49903.000			-15.162			-3.790
50005.000			-15.161			-3.790
50104.000			-15.160			-3.790
50204.000			-15.158			-3.790
50305.000			-15.157			-3.789
50404.000			-15.156			-3.789
50504.000			-15.156			-3.789
50604.000			-15.156			-3.789
50704.000			-15.155			-3.789
50804.000			-15.154			-3.788
50905.000			-15.153			-3.788
51004.000			-15.152			-3.788
51104.000			-15.152			-3.788
51205.000			-15.151			-3.788
51303.000			-15.151			-3.788
51404.000			-15.150			-3.787
51505.000			-15.148			-3.787
51604.000			-15.148			-3.787
51704.000			-15.147			-3.787
51804.000			-15.145			-3.786
51904.000			-15.145			-3.786
52004.000			-15.145			-3.786
52104.000			-15.144			-3.786
52204.000			-15.143			-3.786
52305.000			-15.142			-3.786
52404.000			-15.141			-3.785
52503.000			-15.140			-3.785
52605.000			-15.141			-3.785
52704.000			-15.140			-3.785
52804.000			-15.138			-3.785
52905.000			-15.137			-3.784
53004.000			-15.136			-3.784
53104.000			-15.134			-3.784
53204.000			-15.134			-3.783
53304.000			-15.133			-3.783
53404.000			-15.133			-3.783
53505.000			-15.132			-3.783
53604.000			-15.132			-3.783
53704.000			-15.131			-3.783
53805.000			-15.131			-3.783
53903.000			-15.130			-3.782
54004.000			-15.130			-3.782
54105.000			-15.129			-3.782
54204.000			-15.128			-3.782
54304.000			-15.127			-3.782
54405.000			-15.126			-3.782
54504.000			-15.126			-3.781
54603.000			-15.126			-3.781
54705.000			-15.124			-3.781
54804.000			-15.123			-3.781
54904.000			-15.122			-3.781
55005.000			-15.121			-3.780
55103.000			-15.121			-3.780
55204.000			-15.120			-3.780
55305.000			-15.119			-3.780
55404.000			-15.119			-3.780
55505.000			-15.118			-3.779
55604.000			-15.117			-3.779
55704.000			-15.117			-3.779
55804.000			-15.115			-3.779
55904.000			-15.114			-3.778
56004.000			-15.113			-3.778
56105.000			-15.113			-3.778
56204.000			-15.113			-3.778
56304.000			-15.111			-3.778
56405.000			-15.110			-3.778
56503.000			-15.110			-3.778
56604.000			-15.109			-3.777
56705.000			-15.109			-3.777
56804.000			-15.108			-3.777
56904.000			-15.107			-3.777
57005.000			-15.106			-3.777
57104.000			-15.105			-3.776
57203.000			-15.105			-3.776
57305.000			-15.103			-3.776
57404.000			-15.102			-3.776
57504.000			-15.102			-3.776
57605.000			-15.102			-3.775
57704.000			-15.102			-3.775
57804.000			-15.100			-3.775
57904.000			-15.100			-3.775
58004.000			-15.098			-3.775
58104.000			-15.098			-3.775
58205.000			-15.098			-3.774
58304.000			-15.097			-3.774
58404.000			-15.096			-3.774
58505.000			-15.096			-3.774
58603.000			-15.096			-3.774
58705.000			-15.095			-3.774
58804.000			-15.093			-3.773
58904.000			-15.092			-3.773
59005.000			-15.092			-3.773
59104.000			-15.092			-3.773
59204.000			-15.091			-3.773
59304.000			-15.090			-3.773
59404.000			-15.090			-3.772
59504.000			-15.088			-3.772
59605.000			-15.088			-3.772
59704.000			-15.087			-3.772
59804.000			-15.087			-3.772
59905.000			-15.088			-3.772
60003.000			-15.088			-3.772
60104.000			-15.086			-3.771
60205.000			-15.084			-3.771
60304.000			-15.084			-3.771
60404.000			-15.083			-3.771
60504.000			-15.082			-3.770
60604.000			-15.082			-3.770
60703.000			-15.080			-3.770
60805.000			-15.080			-3.770
60904.000			-15.079			-3.770
61004.000			-15.078			-3.770
61105.000			-15.077			-3.769
61203.000			-15.077			-3.769
61304.000			-15.076			-3.769
61405.000			-15.076			-3.769
61504.000			-15.075			-3.769
61604.000			-15.075			-3.769
61704.000			-15.074			-3.769
61804.000			-15.073			-3.768
61904.000			-15.073			-3.768
62004.000			-15.073			-3.768
62104.000			-15.071			-3.768
62205.000			-15.070			-3.768
62304.000			-15.070			-3.768
62404.000			-15.070			-3.767
62505.000			-15.070			-3.767
62603.000			-15.068			-3.767
62704.000			-15.068			-3.767
62805.000			-15.067			-3.767
62904.000			-15.066			-3.767
63004.000			-15.067			-3.767
63105.000			-15.064			-3.766
63204.000			-15.064			-3.766
63303.000			-15.063			-3.766
63405.000			-15.062			-3.765
63504.000			-15.061			-3.765
63604.000			-15.062			-3.765
63705.000			-15.060			-3.765
63804.000			-15.059			-3.765
63904.000			-15.058			-3.764
64004.000			-15.057			-3.764
64104.000			-15.058			-3.764
64204.000			-15.058			-3.764
64305.000			-15.056			-3.764
64404.000			-15.056			-3.764
64503.000			-15.054			-3.763
64605.000			-15.054			-3.764
64704.000			-15.054			-3.763
64804.000			-15.054			-3.763
64905.000			-15.052			-3.763
65004.000			-15.052			-3.763
65105.000			-15.052			-3.763
65203.000			-15.051			-3.763
65304.000			-15.051			-3.763
65405.000			-15.050			-3.763
65504.000			-15.049			-3.762
65604.000			-15.048			-3.762
65705.000			-15.048			-3.762
65804.000			-15.048			-3.762
65903.000			-15.048			-3.762
66005.000			-15.046			-3.761
66104.000			-15.046			-3.762
66204.000			-15.046			-3.761
66305.000			-15.045			-3.761
66404.000			-15.043			-3.761
66504.000			-15.043			-3.761
66604.000			-15.043			-3.761
66704.000			-15.043			-3.761
66804.000			-15.041			-3.760
66905.000			-15.040			-3.760
67004.000			-15.041			-3.760
67104.000			-15.041			-3.760
67205.000			-15.040			-3.760
67303.000			-15.038			-3.760
67404.000			-15.038			-3.760
67505.000			-15.038			-3.760
67604.000			-15.037			-3.759
67704.000			-15.037			-3.759
67805.000			-15.036			-3.759
67904.000			-15.035			-3.759
68003.000			-15.035			-3.759
68105.000			-15.035			-3.759
68204.000			-15.034			-3.759
68305.000			-15.035			-3.759
68404.000			-15.033			-3.758
68504.000			-15.033			-3.758
68605.000			-15.032			-3.758
68703.000			-15.031			-3.758
68804.000			-15.031			-3.758
68905.000			-15.030			-3.757
69004.000			-15.030			-3.757
69104.000			-15.029			-3.757
69204.000			-15.030			-3.757
69304.000			-15.030			-3.757
69403.000			-15.028			-3.757
69505.000			-15.027			-3.757
69604.000			-15.026			-3.757
69704.000			-15.025			-3.756
69805.000			-15.024			-3.756
69904.000			-15.024			-3.756
70004.000			-15.023			-3.756
70104.000			-15.023			-3.756
70204.000			-15.023			-3.756
70304.000			-15.023			-3.756
70405.000			-15.022			-3.755
70504.000			-15.021			-3.755
70603.000			-15.021			-3.755
70705.000			-15.021			-3.755
70804.000			-15.020			-3.755
70904.000			-15.019			-3.755
71005.000			-15.019			-3.755
71104.000			-15.019			-3.755
71204.000			-15.018			-3.754
71303.000			-15.016			-3.754
71404.000			-15.015			-3.754
71505.000			-15.015			-3.754
71604.000			-15.016			-3.754
71704.000			-15.016			-3.754
71805.000			-15.015			-3.754
71904.000			-15.013			-3.753
72003.000			-15.013			-3.753
72105.000			-15.012			-3.753
72204.000			-15.012			-3.753
72304.000			-15.012			-3.753
72405.000			-15.011			-3.753
72504.000			-15.009			-3.752
72604.000			-15.009			-3.752
72704.000			-15.009			-3.752
72804.000			-15.008			-3.752
72904.000			-15.008			-3.752
73005.000			-15.008			-3.752
73104.000			-15.006			-3.751
73203.000			-15.005			-3.751
73305.000			-15.006			-3.752
73404.000			-15.006			-3.751
73504.000			-15.005			-3.751
73605.000			-15.005			-3.751
73704.000			-15.004			-3.751
73804.000			-15.003			-3.751
73904.000			-15.003			-3.751
74004.000			-15.001			-3.750
74104.000			-15.000			-3.750
74205.000			-15.000			-3.750
74304.000			-15.000			-3.750
74404.000			-14.999			-3.750
74505.000			-14.998			-3.750
74603.000			-14.999			-3.750
74705.000			-14.999			-3.750
74804.000			-14.996			-3.749
74904.000			-14.996			-3.749
75005.000			-14.996			-3.749
75104.000			-14.996			-3.749
75204.000			-14.996			-3.749
75305.000			-14.996			-3.749
75404.000			-14.995			-3.749
75503.000			-14.994			-3.749
75605.000			-14.994			-3.748
75704.000			-14.993			-3.748
75804.000			-14.992			-3.748
75905.000			-14.991			-3.748
76004.000			-14.991			-3.748
76104.000			-14.991			-3.748
76204.000			-14.989			-3.747
76304.000			-14.989			-3.747
76404.000			-14.988			-3.747
76505.000			-14.988			-3.747
76604.000			-14.987			-3.747
76704.000			-14.987			-3.747
76805.000			-14.986			-3.747
76903.000			-14.987			-3.747
77004.000			-14.985			-3.746
77105.000			-14.985			-3.746
77204.000			-14.985			-3.746
77304.000			-14.984			-3.746
77405.000			-14.983			-3.746
77504.000			-14.983			-3.746
77604.000			-14.982			-3.745
77705.000			-14.981			-3.745
77803.000			-14.981			-3.745
77905.000			-14.981			-3.745
78004.000			-14.979			-3.745
78104.000			-14.979			-3.745
78205.000			-14.979			-3.745
78304.000			-14.979			-3.745
78404.000			-14.978			-3.745
78504.000			-14.978			-3.744
78604.000			-14.977			-3.744
78704.000			-14.977			-3.744
78805.000			-14.975			-3.744
78904.000			-14.975			-3.744
79004.000			-14.976			-3.744
79105.000			-14.973			-3.743
79204.000			-14.974			-3.743
79304.000			-14.974			-3.743
79404.000			-14.974			-3.743
79504.000			-14.973			-3.743
79604.000			-14.972			-3.743
79705.000			-14.971			-3.743
79804.000			-14.971			-3.743
79904.000			-14.969			-3.742
80005.000			-14.968			-3.742
80103.000			-14.969			-3.742
80204.000			-14.969			-3.742
80305.000			-14.969			-3.742
80404.000			-14.968			-3.742
80504.000			-14.968			-3.742
80605.000			-14.968			-3.742
80704.000			-14.966			-3.742
80803.000			-14.965			-3.741
80905.000			-14.965			-3.741
81004.000			-14.964			-3.741
81105.000			-14.965			-3.741
81204.000			-14.966			-3.741
81304.000			-14.964			-3.741
81405.000			-14.964			-3.741
81503.000			-14.963			-3.741
81604.000			-14.962			-3.740
81705.000			-14.961			-3.740
81804.000			-14.962			-3.740
81904.000			-14.961			-3.740
82005.000			-14.961			-3.740
82104.000			-14.961			-3.740
82203.000			-14.959			-3.740
82305.000			-14.958			-3.739
82404.000			-14.959			-3.740
82504.000			-14.958			-3.740
82605.000			-14.958			-3.739
82704.000			-14.956			-3.739
82804.000			-14.957			-3.739
82905.000			-14.956			-3.739
83004.000			-14.955			-3.739
83103.000			-14.954			-3.739
83205.000			-14.955			-3.739
83304.000			-14.954			-3.739
83404.000			-14.954			-3.738
83505.000			-14.953			-3.738
83604.000			-14.952			-3.738
83704.000			-14.951			-3.738
83804.000			-14.951			-3.738
83904.000			-14.951			-3.738
84004.000			-14.950			-3.738
84104.000			-14.950			-3.738
84204.000			-14.950			-3.737
84305.000			-14.949			-3.737
84404.000			-14.949			-3.737
84503.000			-14.948			-3.737
84605.000			-14.948			-3.737
84704.000			-14.947			-3.737
84804.000			-14.946			-3.737
84905.000			-14.945			-3.736
85004.000			-14.946			-3.736
85104.000			-14.945			-3.736
85204.000			-14.944			-3.736
85304.000			-14.944			-3.736
85404.000			-14.944			-3.736
85505.000			-14.943			-3.736
85604.000			-14.944			-3.736
85704.000			-14.942			-3.735
85805.000			-14.941			-3.735
85903.000			-14.941			-3.735
86004.000			-14.941			-3.735
86105.000			-14.941			-3.735
86204.000			-14.939			-3.735
86304.000			-14.940			-3.735
86405.000			-14.939			-3.735
86504.000			-14.939			-3.735
86603.000			-14.938			-3.735
86705.000			-14.937			-3.734
86804.000			-14.937			-3.734
86904.000			-14.937			-3.734
87005.000			-14.936			-3.734
87104.000			-14.935			-3.734
87204.000			-14.935			-3.734
87304.000			-14.934			-3.733
87404.000			-14.934			-3.733
87504.000			-14.934			-3.734
87604.000			-14.933			-3.733
87704.000			-14.933			-3.733
87805.000			-14.933			-3.733
87904.000			-14.931			-3.733
88004.000			-14.930			-3.732
88105.000			-14.930			-3.732
88203.000			-14.930			-3.732
88304.000			-14.930			-3.733
88405.000			-14.929			-3.732
88504.000			-14.928			-3.732
88604.000			-14.930			-3.733
88705.000			-14.930			-3.733
88804.000			-14.929			-3.732
88903.000			-14.927			-3.732
89005.000			-14.927			-3.732
89103.000			-14.927			-3.732
89204.000			-14.927			-3.732
89305.000			-14.927			-3.732
89404.000			-14.926			-3.731
89504.000			-14.925			-3.731
89605.000			-14.924			-3.731
89704.000			-14.924			-3.731
89803.000			-14.923			-3.731
89905.000			-14.924			-3.731
90004.000			-14.924			-3.731
90104.000			-14.921			-3.730
90205.000			-14.921			-3.730
90304.000			-14.921			-3.730
90404.000			-14.921			-3.730
90503.000			-14.920			-3.730
90604.000			-14.919			-3.730
90705.000			-14.920			-3.730
90804.000			-14.920			-3.730
90904.000			-14.918			-3.730
91005.000			-14.918			-3.730
91104.000			-14.918			-3.730
91203.000			-14.918			-3.729
91305.000			-14.918			-3.729
91404.000			-14.917			-3.729
91504.000			-14.916			-3.729
91605.000			-14.916			-3.729
91704.000			-14.915			-3.729
91804.000			-14.915			-3.729
91904.000			-14.915			-3.729
92004.000			-14.914			-3.729
92104.000			-14.914			-3.728
92205.000			-14.913			-3.728
92304.000			-14.913			-3.728
92404.000			-14.914			-3.728
92505.000			-14.913			-3.728
92603.000			-14.912			-3.728
92704.000			-14.911			-3.728
92805.000			-14.911			-3.728
92904.000			-14.910			-3.728
93004.000			-14.910			-3.728
93105.000			-14.909			-3.727
93204.000			-14.909			-3.727
93303.000			-14.910			-3.727
93405.000			-14.909			-3.727
93504.000			-14.909			-3.727
93604.000			-14.908			-3.727
93705.000			-14.907			-3.727
93804.000			-14.907			-3.727
93905.000			-14.905			-3.726
94003.000			-14.905			-3.726
94104.000			-14.905			-3.726
94205.000			-14.904			-3.726
94304.000			-14.905			-3.726
94404.000			-14.904			-3.726
94505.000			-14.904			-3.726
94604.000			-14.903			-3.726
94703.000			-14.901			-3.725
94805.000			-14.901			-3.725
94904.000			-14.902			-3.726
95004.000			-14.900			-3.725
95105.000			-14.900			-3.725
95204.000			-14.899			-3.725
95304.000			-14.900			-3.725
95404.000			-14.900			-3.725
95504.000			-14.900			-3.725
95604.000			-14.900			-3.725
95705.000			-14.899			-3.725
95804.000			-14.898			-3.725
95904.000			-14.897			-3.724
96005.000			-14.897			-3.724
96103.000			-14.898			-3.724
96204.000			-14.896			-3.724
96305.000			-14.895			-3.724
96404.000			-14.895			-3.724
96504.000			-14.897			-3.724
96605.000			-14.896			-3.724
96704.000			-14.895			-3.724
96804.000			-14.893			-3.723
96905.000			-14.894			-3.723
97003.000			-14.893			-3.723
97105.000			-14.893			-3.723
97204.000			-14.892			-3.723
97304.000			-14.892			-3.723
97405.000			-14.891			-3.723
97504.000			-14.892			-3.723
97604.000			-14.891			-3.723
97704.000			-14.890			-3.722
97804.000			-14.890			-3.722
97904.000			-14.890			-3.722
98005.000			-14.889			-3.722
98104.000			-14.888			-3.722
98204.000			-14.889			-3.722
98305.000			-14.888			-3.722
98404.000			-14.887			-3.722
98504.000			-14.887			-3.722
98604.000			-14.887			-3.722
98704.000			-14.886			-3.722
98804.000			-14.886			-3.722
98905.000			-14.886			-3.721
99004.000			-14.885			-3.721
99104.000			-14.885			-3.721
99205.000			-14.884			-3.721
99303.000			-14.883			-3.721
99404.000			-14.883			-3.721
99505.000			-14.883			-3.721
99604.000			-14.883			-3.721
99704.000			-14.882			-3.721
99805.000			-14.881			-3.720
99904.000			-14.881			-3.720
100003.000			-14.881			-3.720
100105.000			-14.881			-3.720
100204.000			-14.880			-3.720
100305.000			-14.879			-3.720
100404.000			-14.878			-3.720
100504.000			-14.878			-3.719
100605.000			-14.877			-3.719
100704.000			-14.876			-3.719
100804.000			-14.877			-3.719
100904.000			-14.878			-3.719
101004.000			-14.876			-3.719
101104.000			-14.874			-3.719
101205.000			-14.875			-3.719
101304.000			-14.876			-3.719
101404.000			-14.875			-3.719
101505.000			-14.874			-3.719
101603.000			-14.874			-3.719
101704.000			-14.874			-3.718
101805.000			-14.873			-3.718
101904.000			-14.873			-3.718
102004.000			-14.873			-3.718
102105.000			-14.873			-3.718
102204.000			-14.872			-3.718
102303.000			-14.871			-3.718
102405.000			-14.870			-3.718
102504.000			-14.870			-3.717
102604.000			-14.870			-3.718
102705.000			-14.871			-3.718
102804.000			-14.870			-3.717
102904.000			-14.869			-3.717
103004.000			-14.868			-3.717
103104.000			-14.868			-3.717
103204.000			-14.868			-3.717
103304.000			-14.867			-3.717
103404.000			-14.867			-3.717
103505.000			-14.867			-3.717
103604.000			-14.867			-3.717
103704.000			-14.866			-3.716
103805.000			-14.865			-3.716
103903.000			-14.864			-3.716
104004.000			-14.863			-3.716
104105.000			-14.864			-3.716
104204.000			-14.862			-3.716
104304.000			-14.863			-3.716
104405.000			-14.863			-3.716
104504.000			-14.862			-3.715
104603.000			-14.861			-3.715
104705.000			-14.860			-3.715
104804.000			-14.860			-3.715
104904.000			-14.859			-3.715
105005.000			-14.859			-3.715
105104.000			-14.859			-3.715
105204.000			-14.859			-3.715
105304.000			-14.859			-3.715
105404.000			-14.858			-3.715
105504.000			-14.857			-3.714
105605.000			-14.857			-3.714
105704.000			-14.857			-3.714
105804.000			-14.856			-3.714
105905.000			-14.856			-3.714
106004.000			-14.855			-3.714
106104.000			-14.856			-3.714
106204.000			-14.856			-3.714
106304.000			-14.854			-3.713
106404.000			-14.854			-3.713
106504.000			-14.854			-3.713
106604.000			-14.855			-3.714
106705.000			-14.855			-3.714
106804.000			-14.853			-3.713
106903.000			-14.852			-3.713
107005.000			-14.852			-3.713
107104.000			-14.852			-3.713
107204.000			-14.852			-3.713
107305.000			-14.852			-3.713
107404.000			-14.852			-3.713
107504.000			-14.851			-3.713
107604.000			-14.850			-3.713
107704.000			-14.850			-3.712
107803.000			-14.848			-3.712
107905.000			-14.850			-3.712
108004.000			-14.850			-3.713
108104.000			-14.851			-3.713
108205.000			-14.850			-3.712
108304.000			-14.848			-3.712
108404.000			-14.848			-3.712
108504.000			-14.847			-3.712
108604.000			-14.847			-3.712
108704.000			-14.846			-3.712
108805.000			-14.846			-3.712
108904.000			-14.845			-3.711
109004.000			-14.846			-3.711
109105.000			-14.847			-3.712
109203.000			-14.847			-3.712
109304.000			-14.845			-3.711
109405.000			-14.844			-3.711
109504.000			-14.843			-3.711
109604.000			-14.844			-3.711
109704.000			-14.843			-3.711
109804.000			-14.843			-3.711
109905.000			-14.843			-3.711
110004.000			-14.842			-3.711
110103.000			-14.841			-3.710
110205.000			-14.841			-3.710
110304.000			-14.841			-3.710
110404.000			-14.840			-3.710
110505.000			-14.841			-3.710
110604.000			-14.840			-3.710
110704.000			-14.839			-3.710
110804.000			-14.838			-3.709
110904.000			-14.838			-3.710
111004.000			-14.838			-3.709
111105.000			-14.838			-3.709
111204.000			-14.837			-3.709
111304.000			-14.837			-3.709
111405.000			-14.836			-3.709
111503.000			-14.836			-3.709
111604.000			-14.836			-3.709
111705.000			-14.836			-3.709
111804.000			-14.835			-3.709
111904.000			-14.834			-3.709
112005.000			-14.834			-3.708
112104.000			-14.833			-3.708
112203.000			-14.833			-3.708
112305.000			-14.834			-3.708
112404.000			-14.833			-3.708
112504.000			-14.833			-3.708
112605.000			-14.832			-3.708
112704.000			-14.832			-3.708
112804.000			-14.831			-3.708
112903.000			-14.831			-3.708
113004.000			-14.831			-3.708
113105.000			-14.831			-3.708
113204.000			-14.831			-3.708
113304.000			-14.830			-3.707
113405.000			-14.830			-3.708
113504.000			-14.830			-3.708
113603.000			-14.830			-3.707
113705.000			-14.829			-3.707
113804.000			-14.828			-3.707
113904.000			-14.827			-3.707
114005.000			-14.828			-3.707
114104.000			-14.828			-3.707
114204.000			-14.827			-3.707
114304.000			-14.826			-3.707
114404.000			-14.827			-3.707
114503.000			-14.826			-3.707
114605.000			-14.825			-3.706
114704.000			-14.825			-3.706
114804.000			-14.825			-3.706
114905.000			-14.825			-3.706
115004.000			-14.825			-3.706
115104.000			-14.825			-3.706
115204.000			-14.824			-3.706
115304.000			-14.823			-3.706
115404.000			-14.823			-3.706
115505.000			-14.824			-3.706
115604.000			-14.823			-3.706
115704.000			-14.823			-3.706
115805.000			-14.823			-3.706
115903.000			-14.823			-3.706
116004.000			-14.822			-3.705
116105.000			-14.821			-3.705
116204.000			-14.821			-3.705
116305.000			-14.821			-3.705
116404.000			-14.820			-3.705
116504.000			-14.820			-3.705
116604.000			-14.820			-3.705
116704.000			-14.819			-3.705
116804.000			-14.819			-3.705
116905.000			-14.819			-3.705
117004.000			-14.817			-3.704
117104.000			-14.818			-3.704
117205.000			-14.818			-3.704
117303.000			-14.817			-3.704
117404.000			-14.816			-3.704
117504.000			-14.816			-3.704
117604.000			-14.817			-3.704
117704.000			-14.817			-3.704
117805.000			-14.816			-3.704
117904.000			-14.815			-3.704
118004.000			-14.815			-3.704
118105.000			-14.815			-3.704
118203.000			-14.814			-3.704
118304.000			-14.813			-3.703
118405.000			-14.813			-3.703
118504.000			-14.812			-3.703
118604.000			-14.813			-3.703
118705.000			-14.813			-3.703
118804.000			-14.812			-3.703
118903.000			-14.812			-3.703
119005.000			-14.812			-3.703
119104.000			-14.811			-3.703
119204.000			-14.810			-3.703
119305.000			-14.811			-3.703
119404.000			-14.810			-3.703
119505.000			-14.809			-3.702
119603.000			-14.809			-3.702
119704.000			-14.808			-3.702
119805.000			-14.808			-3.702
119904.000			-14.808			-3.702
120004.000			-14.807			-3.702
120105.000			-14.807			-3.702
120204.000			-14.808			-3.702
120303.000			-14.808			-3.702
120405.000			-14.808			-3.702
120504.000			-14.806			-3.702
120604.000			-14.806			-3.701
120705.000			-14.806			-3.702
120804.000			-14.805			-3.701
120904.000			-14.804			-3.701
121004.000			-14.803			-3.701
121104.000			-14.804			-3.701
121203.000			-14.804			-3.701
121305.000			-14.804			-3.701
121404.000			-14.803			-3.701
121504.000			-14.802			-3.701
121605.000			-14.803			-3.701
121704.000			-14.802			-3.701
121804.000			-14.802			-3.700
121904.000			-14.801			-3.700
122004.000			-14.801			-3.700
122104.000			-14.800			-3.700
122205.000			-14.800			-3.700
122304.000			-14.800			-3.700
122404.000			-14.799			-3.700
122505.000			-14.799			-3.700
122603.000			-14.799			-3.700
122705.000			-14.799			-3.700
122804.000			-14.799			-3.700
122904.000			-14.799			-3.700
123005.000			-14.799			-3.700
123104.000			-14.798			-3.700
123204.000			-14.797			-3.699
123304.000			-14.797			-3.699
123404.000			-14.797			-3.699
123504.000			-14.796			-3.699
123605.000			-14.796			-3.699
123704.000			-14.797			-3.699
123804.000			-14.797			-3.699
123905.000			-14.796			-3.699
124004.000			-14.795			-3.699
124104.000			-14.794			-3.699
124204.000			-14.795			-3.699
124304.000			-14.794			-3.698
124404.000			-14.793			-3.698
124505.000			-14.793			-3.698
124604.000			-14.792			-3.698
124704.000			-14.792			-3.698
124805.000			-14.793			-3.698
124903.000			-14.793			-3.698
125004.000			-14.792			-3.698
125105.000			-14.791			-3.698
125204.000			-14.791			-3.698
125304.000			-14.792			-3.698
125405.000			-14.792			-3.698
125504.000			-14.791			-3.698
125603.000			-14.790			-3.698
125705.000			-14.790			-3.697
125804.000			-14.790			-3.698
125905.000			-14.789			-3.697
126004.000			-14.789			-3.697
126104.000			-14.788			-3.697
126205.000			-14.787			-3.697
126304.000			-14.787			-3.697
126404.000			-14.787			-3.697
126504.000			-14.786			-3.697
126604.000			-14.787			-3.697
126704.000			-14.787			-3.697
126805.000			-14.786			-3.697
126904.000			-14.786			-3.696
127004.000			-14.786			-3.696
127105.000			-14.786			-3.696
127203.000			-14.785			-3.696
127304.000			-14.785			-3.696
127404.000			-14.785			-3.696
127504.000			-14.784			-3.696
127604.000			-14.784			-3.696
127705.000			-14.784			-3.696
127804.000			-14.783			-3.696
127904.000			-14.782			-3.696
128005.000			-14.783			-3.696
128103.000			-14.783			-3.696
128204.000			-14.781			-3.695
128305.000			-14.780			-3.695
128404.000			-14.781			-3.695
128504.000			-14.781			-3.695
128605.000			-14.781			-3.695
128704.000			-14.780			-3.695
128803.000			-14.781			-3.695
128905.000			-14.781			-3.695
129004.000			-14.780			-3.695
129105.000			-14.779			-3.695
129204.000			-14.778			-3.695
129304.000			-14.779			-3.695
129405.000			-14.779			-3.695
129504.000			-14.778			-3.695
129604.000			-14.778			-3.694
129704.000			-14.777			-3.694
129804.000			-14.776			-3.694
129904.000			-14.776			-3.694
130005.000			-14.777			-3.694
130104.000			-14.777			-3.694
130204.000			-14.775			-3.694
130305.000			-14.775			-3.694
130403.000			-14.775			-3.694
130504.000			-14.776			-3.694
130605.000			-14.775			-3.694
130704.000			-14.775			-3.694
130804.000			-14.773			-3.693
130905.000			-14.773			-3.693
131004.000			-14.773			-3.693
131103.000			-14.772			-3.693
131205.000			-14.773			-3.693
131303.000			-14.772			-3.693
131404.000			-14.773			-3.693
131505.000			-14.772			-3.693
131604.000			-14.771			-3.693
131704.000			-14.771			-3.693
131805.000			-14.770			-3.693
131904.000			-14.770			-3.692
132003.000			-14.770			-3.693
132105.000			-14.770			-3.693
132203.000			-14.770			-3.693
132305.000			-14.769			-3.692
132404.000			-14.769			-3.692
132504.000			-14.768			-3.692
132605.000			-14.767			-3.692
132704.000			-14.768			-3.692
132804.000			-14.768			-3.692
132904.000			-14.768			-3.692
133004.000			-14.767			-3.692
133103.000			-14.767			-3.692
133205.000			-14.767			-3.692
133304.000			-14.767			-3.692
133404.000			-14.766			-3.692
133505.000			-14.766			-3.691
133604.000			-14.765			-3.691
133704.000			-14.765			-3.691
133804.000			-14.765			-3.691
133904.000			-14.764			-3.691
134003.000			-14.764			-3.691
134105.000			-14.765			-3.691
134204.000			-14.764			-3.691
134304.000			-14.764			-3.691
134405.000			-14.764			-3.691
134504.000			-14.763			-3.691
134604.000			-14.763			-3.691
134704.000			-14.763			-3.691
134804.000			-14.762			-3.691
134903.000			-14.762			-3.690
135005.000			-14.762			-3.691
135104.000			-14.762			-3.690
135204.000			-14.761			-3.690
135305.000			-14.760			-3.690
135404.000			-14.760			-3.690
135505.000			-14.760			-3.690
135603.000			-14.760			-3.690
135704.000			-14.759			-3.690
135804.000			-14.759			-3.690
135904.000			-14.758			-3.689
136004.000			-14.758			-3.690
136105.000			-14.759			-3.690
136204.000			-14.760			-3.690
136304.000			-14.759			-3.690
136405.000			-14.758			-3.689
136503.000			-14.758			-3.689
136604.000			-14.758			-3.689
136704.000			-14.756			-3.689
136804.000			-14.756			-3.689
136904.000			-14.757			-3.689
137005.000			-14.757			-3.689
137104.000			-14.756			-3.689
137204.000			-14.755			-3.689
137305.000			-14.754			-3.689
137404.000			-14.754			-3.689
137504.000			-14.755			-3.689
137604.000			-14.756			-3.689
137704.000			-14.755			-3.689
137804.000			-14.754			-3.688
137905.000			-14.754			-3.688
138004.000			-14.753			-3.688
138104.000			-14.752			-3.688
138205.000			-14.752			-3.688
138304.000			-14.751			-3.688
138404.000			-14.751			-3.688
138503.000			-14.751			-3.688
138604.000			-14.751			-3.688
138705.000			-14.751			-3.688
138804.000			-14.751			-3.688
138904.000			-14.751			-3.688
139005.000			-14.751			-3.688
139104.000			-14.750			-3.688
139204.000			-14.750			-3.687
139305.000			-14.749			-3.687
139403.000			-14.749			-3.687
139504.000			-14.748			-3.687
139605.000			-14.749			-3.687
139704.000			-14.748			-3.687
139804.000			-14.748			-3.687
139905.000			-14.748			-3.687
140004.000			-14.748			-3.687
140104.000			-14.747			-3.687
140205.000			-14.748			-3.687
140303.000			-14.748			-3.687
140404.000			-14.747			-3.687
140505.000			-14.746			-3.687
140604.000			-14.746			-3.687
140704.000			-14.746			-3.686
140805.000			-14.745			-3.686
140904.000			-14.745			-3.686
141004.000			-14.746			-3.686
141105.000			-14.744			-3.686
141203.000			-14.744			-3.686
141304.000			-14.743			-3.686
141405.000			-14.743			-3.686
141504.000			-14.744			-3.686
141604.000			-14.744			-3.686
141704.000			-14.744			-3.686
141804.000			-14.742			-3.686
141905.000			-14.742			-3.685
142004.000			-14.743			-3.686
142103.000			-14.742			-3.685
142205.000			-14.741			-3.685
142304.000			-14.741			-3.685
142404.000			-14.741			-3.685
142505.000			-14.741			-3.685
142604.000			-14.741			-3.685
142704.000			-14.740			-3.685
142804.000			-14.740			-3.685
142904.000			-14.739			-3.685
143003.000			-14.739			-3.685
143105.000			-14.739			-3.685
143204.000			-14.738			-3.685
143304.000			-14.738			-3.684
143405.000			-14.738			-3.685
143504.000			-14.738			-3.685
143604.000			-14.738			-3.684
143704.000			-14.737			-3.684
143804.000			-14.738			-3.684
143903.000			-14.737			-3.684
144005.000			-14.737			-3.684
144104.000			-14.736			-3.684
144204.000			-14.736			-3.684
144305.000			-14.735			-3.684
144404.000			-14.734			-3.683
144504.000			-14.734			-3.683
144604.000			-14.734			-3.684
144704.000			-14.734			-3.684
144803.000			-14.734			-3.683
144905.000			-14.734			-3.683
145004.000			-14.734			-3.683
145105.000			-14.734			-3.684
145204.000			-14.733			-3.683
145304.000			-14.733			-3.683
145405.000			-14.732			-3.683
145503.000			-14.732			-3.683
145604.000			-14.732			-3.683
145704.000			-14.731			-3.683
145804.000			-14.731			-3.683
145904.000			-14.730			-3.683
146005.000			-14.731			-3.683
146104.000			-14.730			-3.682
146204.000			-14.730			-3.682
146305.000			-14.730			-3.683
146403.000			-14.729			-3.682
146504.000			-14.729			-3.682
146604.000			-14.730			-3.682
146704.000			-14.729			-3.682
146804.000			-14.728			-3.682
146905.000			-14.728			-3.682
147004.000			-14.728			-3.682
147104.000			-14.727			-3.682
147205.000			-14.726			-3.682
147304.000			-14.726			-3.681
147404.000			-14.727			-3.682
147504.000			-14.726			-3.681
147604.000			-14.726			-3.682
147704.000			-14.727			-3.682
147805.000			-14.727			-3.682
147904.000			-14.726			-3.681
148004.000			-14.725			-3.681
148105.000			-14.725			-3.681
148204.000			-14.725			-3.681
148305.000			-14.725			-3.681
148403.000			-14.725			-3.681
148504.000			-14.723			-3.681
148605.000			-14.723			-3.681
148704.000			-14.723			-3.681
148804.000			-14.723			-3.681
148905.000			-14.723			-3.681
149004.000			-14.723			-3.681
149104.000			-14.722			-3.681
149205.000			-14.723			-3.681
149303.000			-14.723			-3.681
149404.000			-14.723			-3.681
149505.000			-14.721			-3.680
149604.000			-14.722			-3.680
149704.000			-14.721			-3.680
149805.000			-14.721			-3.680
149904.000			-14.721			-3.680
150004.000			-14.720			-3.680
150105.000			-14.720			-3.680
150203.000			-14.720			-3.680
150304.000			-14.720			-3.680
150405.000			-14.718			-3.680
150504.000			-14.719			-3.680
150604.000			-14.719			-3.680
150705.000			-14.718			-3.680
150804.000			-14.718			-3.679
150904.000			-14.717			-3.679
151005.000			-14.717			-3.679
151103.000			-14.717			-3.679
151204.000			-14.717			-3.679
151305.000			-14.717			-3.679
151404.000			-14.716			-3.679
151505.000			-14.716			-3.679
151604.000			-14.716			-3.679
151704.000			-14.716			-3.679
151805.000			-14.716			-3.679
151904.000			-14.715			-3.679
152003.000			-14.714			-3.679
152105.000			-14.715			-3.679
152204.000			-14.715			-3.679
152304.000			-14.715			-3.679
152405.000			-14.714			-3.679
152504.000			-14.714			-3.679
152604.000			-14.714			-3.679
152704.000			-14.713			-3.678
152804.000			-14.713			-3.678
152903.000			-14.713			-3.678
153005.000			-14.714			-3.678
153104.000			-14.714			-3.678
153204.000			-14.712			-3.678
153305.000			-14.711			-3.678
153404.000			-14.711			-3.678
153504.000			-14.712			-3.678
153604.000			-14.711			-3.678
153704.000			-14.710			-3.677
153803.000			-14.710			-3.677
153905.000			-14.710			-3.677
154004.000			-14.710			-3.677
154104.000			-14.709			-3.677
154205.000			-14.710			-3.677
154304.000			-14.709			-3.677
154404.000			-14.709			-3.677
154503.000			-14.709			-3.677
154604.000			-14.709			-3.677
154704.000			-14.709			-3.677
154804.000			-14.707			-3.677
154904.000			-14.707			-3.677
155005.000			-14.707			-3.677
155104.000			-14.708			-3.677
155204.000			-14.707			-3.677
155305.000			-14.706			-3.677
155403.000			-14.707			-3.677
155504.000			-14.706			-3.677
155604.000			-14.706			-3.676
155704.000			-14.706			-3.676
155804.000			-14.705			-3.676
155905.000			-14.705			-3.676
156004.000			-14.705			-3.676
156104.000			-14.704			-3.676
156205.000			-14.703			-3.676
156303.000			-14.703			-3.676
156404.000			-14.704			-3.676
156505.000			-14.703			-3.676
156604.000			-14.702			-3.675
156704.000			-14.702			-3.676
156805.000			-14.702			-3.675
156904.000			-14.702			-3.676
157004.000			-14.702			-3.675
157105.000			-14.701			-3.675
157203.000			-14.701			-3.675
157304.000			-14.701			-3.675
157405.000			-14.701			-3.675
157504.000			-14.701			-3.675
157604.000			-14.701			-3.675
157704.000			-14.700			-3.675
157804.000			-14.700			-3.675
157905.000			-14.700			-3.675
158004.000			-14.699			-3.675
158104.000			-14.700			-3.675
158205.000			-14.699			-3.675
158303.000			-14.699			-3.675
158404.000			-14.698			-3.675
158505.000			-14.698			-3.675
158604.000			-14.699			-3.675
158704.000			-14.699			-3.675
158805.000			-14.697			-3.674
158904.000			-14.697			-3.674
159004.000			-14.697			-3.674
159105.000			-14.697			-3.674
159203.000			-14.698			-3.674
159304.000			-14.697			-3.674
159404.000			-14.696			-3.674
159504.000			-14.696			-3.674
159604.000			-14.695			-3.674
159705.000			-14.693			-3.673
159804.000			-14.694			-3.673
159904.000			-14.694			-3.674
160005.000			-14.694			-3.673
160104.000			-14.695			-3.674
160204.000			-14.695			-3.674
160304.000			-14.695			-3.674
160404.000			-14.694			-3.673
160504.000			-14.693			-3.673
160605.000			-14.693			-3.673
160704.000			-14.694			-3.673
160804.000			-14.693			-3.673
160905.000			-14.692			-3.673
161004.000			-14.692			-3.673
161105.000			-14.690			-3.673
161203.000			-14.692			-3.673
161304.000			-14.692			-3.673
161405.000			-14.691			-3.673
161504.000			-14.691			-3.673
161604.000			-14.690			-3.673
161705.000			-14.690			-3.673
161804.000			-14.690			-3.673
161904.000			-14.689			-3.672
162005.000			-14.690			-3.673
162103.000			-14.689			-3.672
162204.000			-14.689			-3.672
162305.000			-14.689			-3.672
162404.000			-14.688			-3.672
162504.000			-14.688			-3.672
162605.000			-14.688			-3.672
162704.000			-14.688			-3.672
162804.000			-14.688			-3.672
162905.000			-14.688			-3.672
163003.000			-14.688			-3.672
163104.000			-14.688			-3.672
163204.000			-14.688			-3.672
163304.000			-14.687			-3.672
163404.000			-14.687			-3.672
163505.000			-14.687			-3.672
163604.000			-14.686			-3.672
163704.000			-14.687			-3.672
163805.000			-14.686			-3.672
163904.000			-14.685			-3.671
164004.000			-14.685			-3.671
164103.000			-14.685			-3.671
164204.000			-14.684			-3.671
164305.000			-14.684			-3.671
164404.000			-14.683			-3.671
164504.000			-14.684			-3.671
164605.000			-14.685			-3.671
164704.000			-14.684			-3.671
164804.000			-14.684			-3.671
164905.000			-14.683			-3.671
165003.000			-14.683			-3.671
165104.000			-14.683			-3.671
165205.000			-14.682			-3.670
165304.000			-14.683			-3.671
165404.000			-14.682			-3.671
165505.000			-14.681			-3.670
165604.000			-14.682			-3.670
165704.000			-14.681			-3.670
165805.000			-14.679			-3.670
165903.000			-14.679			-3.670
166004.000			-14.680			-3.670
166104.000			-14.681			-3.670
166204.000			-14.680			-3.670
166304.000			-14.680			-3.670
166405.000			-14.680			-3.670
166504.000			-14.679			-3.670
166604.000			-14.679			-3.670
166705.000			-14.678			-3.670
166804.000			-14.679			-3.670
166904.000			-14.679			-3.670
167004.000			-14.677			-3.669
167104.000			-14.677			-3.669
167204.000			-14.677			-3.669
167304.000			-14.677			-3.669
167404.000			-14.677			-3.669
167505.000			-14.676			-3.669
167604.000			-14.676			-3.669
167704.000			-14.676			-3.669
167805.000			-14.677			-3.669
167903.000			-14.676			-3.669
168004.000			-14.676			-3.669
168104.000			-14.676			-3.669
168204.000			-14.675			-3.669
168304.000			-14.675			-3.669
168405.000			-14.675			-3.669
168504.000			-14.675			-3.669
168604.000			-14.675			-3.669
168705.000			-14.675			-3.669
168804.000			-14.674			-3.668
168904.000			-14.673			-3.668
169004.000			-14.673			-3.668
169104.000			-14.673			-3.668
169204.000			-14.673			-3.668
169305.000			-14.672			-3.668
169404.000			-14.672			-3.668
169504.000			-14.673			-3.668
169605.000			-14.672			-3.668
169704.000			-14.671			-3.668
169804.000			-14.671			-3.668
169904.000			-14.670			-3.668
170004.000			-14.669			-3.667
170103.000			-14.670			-3.667
170205.000			-14.670			-3.667
170304.000			-14.669			-3.667
170404.000			-14.669			-3.667
170505.000			-14.669			-3.667
170604.000			-14.669			-3.667
170705.000			-14.669			-3.667
170803.000			-14.669			-3.667
170904.000			-14.667			-3.667
171004.000			-14.667			-3.667
171104.000			-14.667			-3.667
171204.000			-14.667			-3.667
171305.000			-14.666			-3.667
171404.000			-14.666			-3.666
171504.000			-14.665			-3.666
171605.000			-14.664			-3.666
171704.000			-14.666			-3.667
171804.000			-14.666			-3.666
171904.000			-14.665			-3.666
172004.000			-14.665			-3.666
172104.000			-14.665			-3.666
172205.000			-14.665			-3.666
172304.000			-14.665			-3.666
172404.000			-14.664			-3.666
172505.000			-14.665			-3.666
172604.000			-14.663			-3.666
172704.000			-14.664			-3.666
172804.000			-14.664			-3.666
172904.000			-14.664			-3.666
173004.000			-14.663			-3.666
173105.000			-14.663			-3.666
173204.000			-14.664			-3.666
173304.000			-14.663			-3.666
173405.000			-14.663			-3.666
173504.000			-14.663			-3.666
173604.000			-14.663			-3.666
173703.000			-14.663			-3.666
173804.000			-14.662			-3.666
173905.000			-14.662			-3.665
174004.000			-14.662			-3.665
174104.000			-14.662			-3.665
174205.000			-14.661			-3.665
174304.000			-14.660			-3.665
174404.000			-14.659			-3.665
174505.000			-14.658			-3.664
174603.000			-14.659			-3.665
174704.000			-14.658			-3.665
174804.000			-14.658			-3.664
174904.000			-14.657			-3.664
175004.000			-14.657			-3.664
175105.000			-14.657			-3.664
175204.000			-14.656			-3.664
175304.000			-14.657			-3.664
175405.000			-14.656			-3.664
175504.000			-14.657			-3.664
175604.000			-14.657			-3.664
175704.000			-14.656			-3.664
175804.000			-14.656			-3.664
175904.000			-14.655			-3.664
176005.000			-14.655			-3.664
176104.000			-14.655			-3.664
176204.000			-14.655			-3.664
176305.000			-14.655			-3.664
176404.000			-14.654			-3.663
176504.000			-14.655			-3.664
176604.000			-14.655			-3.664
176704.000			-14.654			-3.664
176804.000			-14.655			-3.664
176904.000			-14.655			-3.664
177004.000			-14.654			-3.664
177105.000			-14.654			-3.663
177204.000			-14.654			-3.663
177304.000			-14.653			-3.663
177405.000			-14.652			-3.663
177503.000			-14.653			-3.663
177604.000			-14.653			-3.663
177704.000			-14.653			-3.663
177804.000			-14.653			-3.663
177904.000			-14.653			-3.663
178005.000			-14.652			-3.663
178104.000			-14.652			-3.663
178204.000			-14.652			-3.663
178305.000			-14.651			-3.663
178404.000			-14.651			-3.663
178504.000			-14.651			-3.663
178604.000			-14.651			-3.663
178704.000			-14.651			-3.663
178804.000			-14.651			-3.663
178905.000			-14.650			-3.663
179004.000			-14.650			-3.663
179104.000			-14.650			-3.663
179205.000			-14.650			-3.663
179304.000			-14.649			-3.662
179404.000			-14.650			-3.662
179504.000			-14.650			-3.662
179604.000			-14.649			-3.662
179703.000			-14.649			-3.662
179805.000			-14.648			-3.662
179904.000			-14.648			-3.662
180004.000			-14.647			-3.662
180105.000			-14.648			-3.662
180204.000			-14.648			-3.662
180305.000			-14.647			-3.662
180404.000			-14.647			-3.662
180504.000			-14.648			-3.662
180604.000			-14.648			-3.662
180704.000			-14.647			-3.662
180804.000			-14.647			-3.662
180905.000			-14.647			-3.662
181004.000			-14.647			-3.662
181104.000			-14.646			-3.662
181205.000			-14.646			-3.661
181304.000			-14.646			-3.661
181404.000			-14.645			-3.661
181504.000			-14.645			-3.661
181604.000			-14.646			-3.661
181704.000			-14.645			-3.661
181805.000			-14.644			-3.661
181904.000			-14.645			-3.661
182004.000			-14.644			-3.661
182105.000			-14.642			-3.661
182204.000			-14.643			-3.661
182304.000			-14.643			-3.661
182404.000			-14.643			-3.661
182504.000			-14.643			-3.661
182604.000			-14.643			-3.661
182705.000			-14.643			-3.661
182804.000			-14.643			-3.661
182904.000			-14.643			-3.661
183005.000			-14.642			-3.661
183104.000			-14.642			-3.660
183204.000			-14.643			-3.661
183303.000			-14.641			-3.660
183404.000			-14.640			-3.660
183505.000			-14.641			-3.660
183604.000			-14.641			-3.660
183704.000			-14.641			-3.660
183805.000			-14.640			-3.660
183904.000			-14.641			-3.660
184004.000			-14.640			-3.660
184105.000			-14.639			-3.660
184203.000			-14.638			-3.660
184304.000			-14.639			-3.660
184405.000			-14.639			-3.660
184504.000			-14.638			-3.659
184604.000			-14.638			-3.659
184705.000			-14.638			-3.659
184804.000			-14.638			-3.659
184904.000			-14.637			-3.659
185005.000			-14.637			-3.659
185103.000			-14.637			-3.659
185204.000			-14.637			-3.659
185305.000			-14.637			-3.659
185404.000			-14.637			-3.659
185504.000			-14.637			-3.659
185605.000			-14.638			-3.659
185704.000			-14.637			-3.659
185804.000			-14.636			-3.659
185905.000			-14.635			-3.659
186004.000			-14.635			-3.659
186104.000			-14.635			-3.659
186204.000			-14.635			-3.659
186304.000			-14.634			-3.659
186404.000			-14.635			-3.659
186504.000			-14.634			-3.658
186604.000			-14.634			-3.658
186705.000			-14.635			-3.659
186804.000			-14.635			-3.659
186904.000			-14.633			-3.658
187005.000			-14.634			-3.658
187103.000			-14.633			-3.658
187204.000			-14.633			-3.658
187305.000			-14.633			-3.658
187404.000			-14.632			-3.658
187504.000			-14.632			-3.658
187605.000			-14.631			-3.658
187704.000			-14.630			-3.658
187804.000			-14.631			-3.658
187905.000			-14.632			-3.658
188003.000			-14.631			-3.658
188104.000			-14.630			-3.658
188205.000			-14.631			-3.658
188304.000			-14.631			-3.658
188404.000			-14.630			-3.658
188505.000			-14.630			-3.658
188604.000			-14.629			-3.657
188704.000			-14.629			-3.657
188805.000			-14.629			-3.657
188903.000			-14.630			-3.657
189004.000			-14.630			-3.657
189105.000			-14.629			-3.657
189204.000			-14.629			-3.657
189304.000			-14.629			-3.657
189405.000			-14.628			-3.657
189504.000			-14.628			-3.657
189604.000			-14.628			-3.657
189705.000			-14.627			-3.657
189803.000			-14.627			-3.657
189905.000			-14.627			-3.657
190003.000			-14.627			-3.657
190104.000			-14.628			-3.657
190205.000			-14.628			-3.657
190304.000			-14.627			-3.657
190404.000			-14.627			-3.657
190505.000			-14.626			-3.656
190604.000			-14.626			-3.656
190704.000			-14.627			-3.657
190805.000			-14.626			-3.657
190903.000			-14.626			-3.656
191004.000			-14.626			-3.656
191105.000			-14.624			-3.656
191204.000			-14.625			-3.656
191304.000			-14.624			-3.656
191405.000			-14.624			-3.656
191504.000			-14.624			-3.656
191604.000			-14.623			-3.656
191705.000			-14.623			-3.656
191803.000			-14.622			-3.655
191904.000			-14.622			-3.656
192005.000			-14.622			-3.656
192104.000			-14.622			-3.656
192204.000			-14.621			-3.655
192305.000			-14.622			-3.656
192404.000			-14.623			-3.656
192503.000			-14.623			-3.656
192605.000			-14.622			-3.656
192703.000			-14.623			-3.656
192804.000			-14.622			-3.655
192905.000			-14.621			-3.655
193004.000			-14.622			-3.655
193105.000			-14.621			-3.655
193204.000			-14.620			-3.655
193304.000			-14.620			-3.655
193405.000			-14.620			-3.655
193504.000			-14.620			-3.655
193603.000			-14.619			-3.655
193705.000			-14.617			-3.654
193804.000			-14.619			-3.655
193904.000			-14.619			-3.655
194005.000			-14.619			-3.655
194104.000			-14.619			-3.655
194204.000			-14.618			-3.655
194305.000			-14.617			-3.654
194404.000			-14.618			-3.654
194503.000			-14.618			-3.655
194605.000			-14.618			-3.655
194704.000			-14.618			-3.654
194804.000			-14.617			-3.654
194905.000			-14.616			-3.654
195004.000			-14.616			-3.654
195104.000			-14.617			-3.654
195205.000			-14.616			-3.654
195304.000			-14.615			-3.654
195403.000			-14.615			-3.654
195505.000			-14.615			-3.654
195604.000			-14.615			-3.654
195704.000			-14.613			-3.653
195805.000			-14.614			-3.653
195904.000			-14.615			-3.654
196004.000			-14.615			-3.654
196104.000			-14.614			-3.653
196204.000			-14.613			-3.653
196304.000			-14.611			-3.653
196404.000			-14.612			-3.653
196503.000			-14.610			-3.653
196605.000			-14.610			-3.652
196704.000			-14.609			-3.652
196804.000			-14.608			-3.652
196905.000			-14.608			-3.652
197004.000			-14.608			-3.652
197104.000			-14.608			-3.652
197205.000			-14.607			-3.652
197304.000			-14.607			-3.652
197403.000			-14.607			-3.652
197505.000			-14.607			-3.652
197604.000			-14.607			-3.652
197704.000			-14.608			-3.652
197805.000			-14.606			-3.652
197904.000			-14.607			-3.652
198004.000			-14.606			-3.652
198105.000			-14.606			-3.652
198204.000			-14.606			-3.652
198303.000			-14.606			-3.652
198405.000			-14.606			-3.652
198504.000			-14.607			-3.652
198604.000			-14.606			-3.652
198705.000			-14.606			-3.651
198804.000			-14.605			-3.651
198904.000			-14.605			-3.651
199005.000			-14.606			-3.651
199104.000			-14.606			-3.651
199203.000			-14.605			-3.651
199305.000			-14.605			-3.651
199403.000			-14.606			-3.652
199505.000			-14.606			-3.651
199604.000			-14.604			-3.651
199704.000			-14.604			-3.651
199805.000			-14.605			-3.651
199904.000			-14.605			-3.651
200004.000			-14.604			-3.651
200105.000			-14.604			-3.651
200204.000			-14.603			-3.651
200303.000			-14.603			-3.651
200405.000			-14.603			-3.651
200504.000			-14.604			-3.651
200604.000			-14.603			-3.651
200705.000			-14.602			-3.650
200804.000			-14.603			-3.651
200904.000			-14.603			-3.651
201004.000			-14.603			-3.651
201104.000			-14.604			-3.651
201204.000			-14.604			-3.651
201305.000			-14.602			-3.651
201404.000			-14.602			-3.650
201504.000			-14.601			-3.650
201605.000			-14.602			-3.651
201704.000			-14.602			-3.651
201804.000			-14.602			-3.650
201904.000			-14.602			-3.651
202004.000			-14.602			-3.650
202104.000			-14.601			-3.650
202205.000			-14.600			-3.650
202304.000			-14.601			-3.650
202404.000			-14.600			-3.650
202505.000			-14.599			-3.650
202603.000			-14.598			-3.649
202705.000			-14.599			-3.650
202804.000			-14.599			-3.650
202904.000			-14.599			-3.650
203005.000			-14.597			-3.649
203104.000			-14.598			-3.649
203204.000			-14.597			-3.649
203305.000			-14.597			-3.649
203404.000			-14.597			-3.649
203503.000			-14.597			-3.649
203605.000			-14.597			-3.649
203704.000			-14.596			-3.649
203804.000			-14.596			-3.649
203905.000			-14.596			-3.649
204004.000			-14.595			-3.649
204104.000			-14.596			-3.649
204205.000			-14.595			-3.649
204304.000			-14.594			-3.649
204403.000			-14.595			-3.649
204505.000			-14.595			-3.649
204604.000			-14.594			-3.649
204704.000			-14.595			-3.649
204805.000			-14.595			-3.649
204904.000			-14.594			-3.649
205004.000			-14.593			-3.648
205105.000			-14.595			-3.649
205204.000			-14.594			-3.649
205303.000			-14.594			-3.649
205405.000			-14.594			-3.648
205504.000			-14.594			-3.648
205604.000			-14.593			-3.648
205705.000			-14.593			-3.648
205804.000			-14.594			-3.648
205905.000			-14.593			-3.648
206004.000			-14.593			-3.648
206104.000			-14.592			-3.648
206204.000			-14.591			-3.648
206304.000			-14.593			-3.648
206404.000			-14.592			-3.648
206505.000			-14.592			-3.648
206604.000			-14.592			-3.648
206704.000			-14.592			-3.648
206805.000			-14.592			-3.648
206904.000			-14.591			-3.648
207004.000			-14.590			-3.647
207104.000			-14.590			-3.647
207204.000			-14.590			-3.647
207303.000			-14.590			-3.647
207405.000			-14.590			-3.647
207504.000			-14.590			-3.648
207604.000			-14.590			-3.647
207705.000			-14.590			-3.647
207804.000			-14.590			-3.648
207904.000			-14.590			-3.648
208004.000			-14.589			-3.647
208104.000			-14.589			-3.647
208203.000			-14.590			-3.647
208305.000			-14.590			-3.648
208404.000			-14.590			-3.647
208504.000			-14.589			-3.647
208605.000			-14.589			-3.647
208704.000			-14.588			-3.647
208804.000			-14.588			-3.647
208904.000			-14.587			-3.647
209004.000			-14.587			-3.647
209104.000			-14.587			-3.647
209204.000			-14.588			-3.647
209304.000			-14.586			-3.647
209405.000			-14.585			-3.646
209504.000			-14.585			-3.646
209604.000			-14.584			-3.646
209705.000			-14.583			-3.646
209804.000			-14.584			-3.646
209904.000			-14.584			-3.646
210004.000			-14.583			-3.646
210104.000			-14.583			-3.646
210204.000			-14.583			-3.646
210305.000			-14.583			-3.646
210404.000			-14.583			-3.646
210504.000			-14.582			-3.646
210605.000			-14.582			-3.646
210704.000			-14.581			-3.645
210804.000			-14.580			-3.645
210904.000			-14.580			-3.645
211004.000			-14.581			-3.645
211104.000			-14.582			-3.645
211205.000			-14.582			-3.645
211304.000			-14.581			-3.645
211404.000			-14.580			-3.645
211505.000			-14.580			-3.645
211603.000			-14.579			-3.645
211704.000			-14.579			-3.645
211805.000			-14.579			-3.645
211904.000			-14.578			-3.645
212004.000			-14.578			-3.645
212104.000			-14.578			-3.644
212204.000			-14.579			-3.645
212305.000			-14.578			-3.645
212404.000			-14.577			-3.644
212503.000			-14.576			-3.644
212605.000			-14.576			-3.644
212704.000			-14.576			-3.644
212804.000			-14.576			-3.644
212905.000			-14.576			-3.644
213004.000			-14.576			-3.644
213104.000			-14.576			-3.644
213205.000			-14.575			-3.644
213304.000			-14.575			-3.644
213403.000			-14.576			-3.644
213505.000			-14.576			-3.644
213604.000			-14.575			-3.644
213704.000			-14.575			-3.644
213805.000			-14.577			-3.644
213904.000			-14.575			-3.644
214004.000			-14.575			-3.644
214105.000			-14.575			-3.644
214204.000			-14.574			-3.644
214303.000			-14.573			-3.643
214405.000			-14.573			-3.643
214504.000			-14.573			-3.643
214604.000			-14.574			-3.643
214705.000			-14.574			-3.644
214804.000			-14.574			-3.643
214904.000			-14.573			-3.643
215005.000			-14.574			-3.643
215104.000			-14.574			-3.643
215203.000			-14.574			-3.643
215305.000			-14.573			-3.643
215404.000			-14.572			-3.643
215505.000			-14.574			-3.643
215604.000			-14.572			-3.643
215704.000			-14.572			-3.643
215805.000			-14.573			-3.643
215904.000			-14.573			-3.643
216004.000			-14.573			-3.643
216104.000			-14.572			-3.643
216204.000			-14.571			-3.643
216304.000			-14.571			-3.643
216405.000			-14.572			-3.643
216504.000			-14.572			-3.643
216604.000			-14.572			-3.643
216705.000			-14.571			-3.643
216804.000			-14.571			-3.643
216904.000			-14.571			-3.643
217004.000			-14.571			-3.643
217104.000			-14.571			-3.643
217204.000			-14.569			-3.642
217305.000			-14.570			-3.643
217404.000			-14.571			-3.643
217504.000			-14.571			-3.643
217605.000			-14.570			-3.643
217703.000			-14.570			-3.642
217804.000			-14.570			-3.642
217904.000			-14.569			-3.642
218004.000			-14.568			-3.642
218104.000			-14.569			-3.642
218205.000			-14.570			-3.642
218304.000			-14.569			-3.642
218404.000			-14.569			-3.642
218505.000			-14.568			-3.642
218603.000			-14.567			-3.642
218705.000			-14.567			-3.642
218803.000			-14.566			-3.642
218904.000			-14.566			-3.642
219005.000			-14.567			-3.642
219104.000			-14.567			-3.642
219204.000			-14.568			-3.642
219305.000			-14.567			-3.642
219404.000			-14.567			-3.642
219504.000			-14.567			-3.642
219605.000			-14.566			-3.642
219703.000			-14.567			-3.642
219804.000			-14.565			-3.641
219905.000			-14.565			-3.641
220004.000			-14.565			-3.641
220104.000			-14.567			-3.642
220205.000			-14.566			-3.642
220304.000			-14.566			-3.642
220403.000			-14.565			-3.641
220505.000			-14.565			-3.641
220603.000			-14.565			-3.641
220704.000			-14.564			-3.641
220805.000			-14.564			-3.641
220904.000			-14.565			-3.641
221004.000			-14.565			-3.641
221105.000			-14.564			-3.641
221204.000			-14.563			-3.641
221303.000			-14.564			-3.641
221405.000			-14.564			-3.641
221504.000			-14.563			-3.641
221604.000			-14.563			-3.641
221705.000			-14.562			-3.641
221804.000			-14.562			-3.641
221905.000			-14.562			-3.641
222004.000			-14.563			-3.641
222104.000			-14.561			-3.640
222204.000			-14.562			-3.641
222304.000			-14.563			-3.641
222404.000			-14.562			-3.641
222505.000			-14.562			-3.641
222604.000			-14.562			-3.640
222704.000			-14.562			-3.641
222805.000			-14.562			-3.641
222904.000			-14.562			-3.640
223004.000			-14.561			-3.640
223104.000			-14.561			-3.640
223204.000			-14.561			-3.640
223304.000			-14.562			-3.641
223405.000			-14.562			-3.640
223504.000			-14.561			-3.640
223604.000			-14.561			-3.640
223705.000			-14.561			-3.640
223804.000			-14.561			-3.640
223904.000			-14.560			-3.640
224004.000			-14.560			-3.640
224104.000			-14.561			-3.640
224204.000			-14.561			-3.640
224305.000			-14.561			-3.640
224404.000			-14.560			-3.640
224504.000			-14.559			-3.640
224605.000			-14.559			-3.640
224704.000			-14.559			-3.640
224804.000			-14.559			-3.640
224903.000			-14.560			-3.640
225004.000			-14.560			-3.640
225105.000			-14.559			-3.640
225204.000			-14.559			-3.640
225304.000			-14.559			-3.640
225405.000			-14.557			-3.639
225504.000			-14.557			-3.639
225604.000			-14.557			-3.639
225705.000			-14.557			-3.639
225803.000			-14.556			-3.639
225904.000			-14.557			-3.639
226005.000			-14.557			-3.639
226104.000			-14.557			-3.639
226204.000			-14.557			-3.639
226305.000			-14.556			-3.639
226404.000			-14.557			-3.639
226504.000			-14.556			-3.639
226605.000			-14.557			-3.639
226703.000			-14.557			-3.639
226804.000			-14.556			-3.639
226905.000			-14.556			-3.639
227004.000			-14.556			-3.639
227104.000			-14.554			-3.639
227205.000			-14.554			-3.639
227304.000			-14.555			-3.639
227404.000			-14.555			-3.639
227505.000			-14.554			-3.639
227603.000			-14.555			-3.639
227704.000			-14.555			-3.639
227805.000			-14.555			-3.639
227904.000			-14.554			-3.639
228004.000			-14.554			-3.638
228104.000			-14.555			-3.639
228204.000			-14.555			-3.639
228305.000			-14.554			-3.639
228404.000			-14.553			-3.638
228503.000			-14.552			-3.638
228605.000			-14.553			-3.638
228704.000			-14.553			-3.638
228804.000			-14.552			-3.638
228905.000			-14.552			-3.638
229004.000			-14.552			-3.638
229104.000			-14.553			-3.638
229205.000			-14.553			-3.638
229304.000			-14.553			-3.638
229403.000			-14.552			-3.638
229505.000			-14.552			-3.638
229604.000			-14.550			-3.638
229704.000			-14.551			-3.638
229805.000			-14.552			-3.638
229904.000			-14.551			-3.638
230004.000			-14.551			-3.638
230105.000			-14.551			-3.638
230204.000			-14.550			-3.638
230303.000			-14.550			-3.638
230405.000			-14.550			-3.638
230504.000			-14.550			-3.638
230604.000			-14.550			-3.637
230705.000			-14.550			-3.637
230804.000			-14.549			-3.637
230904.000			-14.549			-3.637
231005.000			-14.549			-3.637
231104.000			-14.548			-3.637
231203.000			-14.548			-3.637
231305.000			-14.549			-3.637
231404.000			-14.549			-3.637
231505.000			-14.549			-3.637
231604.000			-14.549			-3.637
231704.000			-14.549			-3.637
231805.000			-14.548			-3.637
231904.000			-14.548			-3.637
232004.000			-14.548			-3.637
232104.000			-14.548			-3.637
232204.000			-14.547			-3.637
232304.000			-14.548			-3.637
232405.000			-14.548			-3.637
232504.000			-14.548			-3.637
232604.000			-14.547			-3.637
232705.000			-14.547			-3.637
232804.000			-14.547			-3.637
232904.000			-14.546			-3.637
233004.000			-14.546			-3.636
233104.000			-14.546			-3.636
233204.000			-14.546			-3.637
233305.000			-14.546			-3.636
233404.000			-14.546			-3.637
233504.000			-14.546			-3.636
233605.000			-14.546			-3.636
233704.000			-14.546			-3.636
233804.000			-14.545			-3.636
233904.000			-14.544			-3.636
234004.000			-14.544			-3.636
234104.000			-14.545			-3.636
234205.000			-14.544			-3.636
234304.000			-14.544			-3.636
234404.000			-14.544			-3.636
234505.000			-14.544			-3.636
234604.000			-14.544			-3.636
234705.000			-14.544			-3.636
234803.000			-14.543			-3.636
234904.000			-14.543			-3.636
235005.000			-14.543			-3.636
235104.000			-14.543			-3.636
235204.000			-14.542			-3.636
235305.000			-14.542			-3.636
235404.000			-14.542			-3.636
235504.000			-14.542			-3.636
235605.000			-14.543			-3.636
235703.000			-14.543			-3.636
235804.000			-14.543			-3.636
235905.000			-14.541			-3.635
236004.000			-14.541			-3.635
236104.000			-14.541			-3.635
236205.000			-14.541			-3.635
236304.000			-14.541			-3.635
236404.000			-14.540			-3.635
236505.000			-14.540			-3.635
236603.000			-14.541			-3.635
236704.000			-14.541			-3.635
236805.000			-14.540			-3.635
236904.000			-14.540			-3.635
237004.000			-14.539			-3.635
237105.000			-14.538			-3.635
237204.000			-14.539			-3.635
237304.000			-14.539			-3.635
237405.000			-14.539			-3.635
237503.000			-14.539			-3.635
237604.000			-14.538			-3.634
237705.000			-14.538			-3.635
237804.000			-14.538			-3.635
237905.000			-14.538			-3.635
238004.000			-14.538			-3.634
238104.000			-14.538			-3.635
238205.000			-14.537			-3.634
238304.000			-14.537			-3.634
238403.000			-14.537			-3.634
238505.000			-14.538			-3.634
238604.000			-14.538			-3.634
238704.000			-14.537			-3.634
238805.000			-14.537			-3.634
238904.000			-14.536			-3.634
239004.000			-14.536			-3.634
239105.000			-14.537			-3.634
239204.000			-14.538			-3.634
239303.000			-14.536			-3.634
239405.000			-14.535			-3.634
239504.000			-14.535			-3.634
239604.000			-14.535			-3.634
239705.000			-14.535			-3.634
239804.000			-14.535			-3.634
239904.000			-14.534			-3.634
240005.000			-14.534			-3.634
240104.000			-14.534			-3.634
240203.000			-14.533			-3.633
240305.000			-14.534			-3.634
240404.000			-14.534			-3.633
240504.000			-14.533			-3.633
240605.000			-14.532			-3.633
240704.000			-14.532			-3.633
240804.000			-14.533			-3.633
240904.000			-14.533			-3.633
241004.000			-14.532			-3.633
241104.000			-14.531			-3.633
241204.000			-14.531			-3.633
241304.000			-14.530			-3.632
241405.000			-14.530			-3.632
241504.000			-14.530			-3.632
241604.000			-14.530			-3.633
241705.000			-14.528			-3.632
241804.000			-14.529			-3.632
241904.000			-14.529			-3.632
242004.000			-14.529			-3.632
242104.000			-14.528			-3.632
242204.000			-14.527			-3.632
242305.000			-14.528			-3.632
242404.000			-14.528			-3.632
242504.000			-14.526			-3.632
242605.000			-14.527			-3.632
242704.000			-14.526			-3.631
242804.000			-14.526			-3.631
242904.000			-14.527			-3.632
243004.000			-14.526			-3.631
243104.000			-14.527			-3.632
243205.000			-14.526			-3.632
243304.000			-14.526			-3.632
243404.000			-14.526			-3.631
243505.000			-14.526			-3.631
243604.000			-14.526			-3.632
243704.000			-14.527			-3.632
243804.000			-14.527			-3.632
243904.000			-14.527			-3.632
244003.000			-14.527			-3.632
244105.000			-14.526			-3.632
244204.000			-14.525			-3.631
244305.000			-14.524			-3.631
244404.000			-14.523			-3.631
244504.000			-14.523			-3.631
244605.000			-14.523			-3.631
244703.000			-14.522			-3.631
244804.000			-14.522			-3.631
244905.000			-14.522			-3.630
245004.000			-14.521			-3.630
245104.000			-14.522			-3.630
245205.000			-14.522			-3.631
245304.000			-14.523			-3.631
245404.000			-14.523			-3.631
245505.000			-14.522			-3.631
245603.000			-14.522			-3.630
245704.000			-14.524			-3.631
245805.000			-14.524			-3.631
245904.000			-14.524			-3.631
246004.000			-14.524			-3.631
246105.000			-14.524			-3.631
246204.000			-14.523			-3.631
246304.000			-14.523			-3.631
246405.000			-14.522			-3.631
246503.000			-14.522			-3.631
246604.000			-14.521			-3.630
246705.000			-14.522			-3.631
246804.000			-14.523			-3.631
246904.000			-14.522			-3.630
247005.000			-14.521			-3.630
247104.000			-14.521			-3.630
247204.000			-14.521			-3.630
247305.000			-14.521			-3.630
247403.000			-14.521			-3.630
247505.000			-14.521			-3.630
247604.000			-14.521			-3.630
247704.000			-14.521			-3.630
247805.000			-14.521			-3.630
247904.000			-14.521			-3.630
248004.000			-14.521			-3.630
248105.000			-14.520			-3.630
248204.000			-14.520			-3.630
248303.000			-14.520			-3.630
248405.000			-14.519			-3.630
248504.000			-14.519			-3.630
248604.000			-14.520			-3.630
248705.000			-14.519			-3.630
248804.000			-14.519			-3.630
248904.000			-14.519			-3.630
249005.000			-14.519			-3.630
249104.000			-14.518			-3.630
249203.000			-14.519			-3.630
249305.000			-14.518			-3.629
249404.000			-14.518			-3.630
249504.000			-14.519			-3.630
249605.000			-14.517			-3.629
249704.000			-14.516			-3.629
249804.000			-14.516			-3.629
249905.000			-14.517			-3.629
250004.000			-14.516			-3.629
250103.000			-14.516			-3.629
250205.000			-14.516			-3.629
250303.000			-14.516			-3.629
250404.000			-14.516			-3.629
250505.000			-14.515			-3.629
250604.000			-14.515			-3.629
250705.000			-14.516			-3.629
250804.000			-14.515			-3.629
250904.000			-14.514			-3.628
251004.000			-14.514			-3.629
251104.000			-14.514			-3.628
251203.000			-14.513			-3.628
251305.000			-14.514			-3.628
251404.000			-14.513			-3.628
251504.000			-14.513			-3.628
251605.000			-14.513			-3.628
251704.000			-14.513			-3.628
251804.000			-14.512			-3.628
251904.000			-14.512			-3.628
252004.000			-14.513			-3.628
252104.000			-14.513			-3.628
252205.000			-14.512			-3.628
252304.000			-14.511			-3.628
252404.000			-14.512			-3.628
252505.000			-14.512			-3.628
252604.000			-14.512			-3.628
252704.000			-14.512			-3.628
252804.000			-14.511			-3.628
252904.000			-14.511			-3.628
253004.000			-14.512			-3.628
253105.000			-14.512			-3.628
253204.000			-14.512			-3.628
253304.000			-14.511			-3.628
253405.000			-14.511			-3.628
253503.000			-14.511			-3.628
253604.000			-14.511			-3.628
253705.000			-14.511			-3.628
253804.000			-14.511			-3.628
253905.000			-14.511			-3.628
254004.000			-14.510			-3.628
254104.000			-14.511			-3.628
254205.000			-14.510			-3.628
254304.000			-14.510			-3.628
254403.000			-14.511			-3.628
254505.000			-14.511			-3.628
254604.000			-14.511			-3.628
254704.000			-14.509			-3.627
254805.000			-14.510			-3.627
254904.000			-14.509			-3.627
255004.000			-14.510			-3.627
255105.000			-14.510			-3.627
255204.000			-14.510			-3.627
255303.000			-14.509			-3.627
255405.000			-14.508			-3.627
255504.000			-14.509			-3.627
255604.000			-14.508			-3.627
255705.000			-14.508			-3.627
255804.000			-14.507			-3.627
255904.000			-14.507			-3.627
256005.000			-14.507			-3.627
256104.000			-14.506			-3.627
256203.000			-14.506			-3.626
256305.000			-14.507			-3.627
256404.000			-14.508			-3.627
256504.000			-14.507			-3.627
256605.000			-14.507			-3.627
256704.000			-14.507			-3.627
256804.000			-14.507			-3.627
256904.000			-14.507			-3.627
257004.000			-14.506			-3.626
257104.000			-14.505			-3.626
257204.000			-14.505			-3.626
257304.000			-14.505			-3.626
257405.000			-14.505			-3.626
257504.000			-14.505			-3.626
257604.000			-14.505			-3.626
257705.000			-14.505			-3.626
257804.000			-14.505			-3.626
257904.000			-14.504			-3.626
258004.000			-14.504			-3.626
258104.000			-14.503			-3.626
258203.000			-14.504			-3.626
258305.000			-14.504			-3.626
258404.000			-14.504			-3.626
258504.000			-14.505			-3.626
258605.000			-14.505			-3.626
258704.000			-14.504			-3.626
258804.000			-14.502			-3.626
258904.000			-14.503			-3.626
259004.000			-14.504			-3.626
259104.000			-14.504			-3.626
259205.000			-14.502			-3.626
259304.000			-14.503			-3.626
259404.000			-14.503			-3.626
259505.000			-14.502			-3.625
259604.000			-14.501			-3.625
259704.000			-14.502			-3.625
259804.000			-14.502			-3.626
259904.000			-14.503			-3.626
260004.000			-14.502			-3.625
260104.000			-14.502			-3.625
260204.000			-14.502			-3.626
260305.000			-14.502			-3.626
260404.000			-14.501			-3.625
260504.000			-14.501			-3.625
260605.000			-14.500			-3.625
260703.000			-14.500			-3.625
260804.000			-14.500			-3.625
260905.000			-14.501			-3.625
261004.000			-14.500			-3.625
261104.000			-14.500			-3.625
261205.000			-14.500			-3.625
261304.000			-14.499			-3.625
261404.000			-14.500			-3.625
261505.000			-14.499			-3.625
261603.000			-14.499			-3.625
261704.000			-14.499			-3.625
261805.000			-14.498			-3.625
261904.000			-14.498			-3.625
262004.000			-14.498			-3.625
262105.000			-14.500			-3.625
262204.000			-14.500			-3.625
262304.000			-14.499			-3.625
262405.000			-14.499			-3.625
262503.000			-14.500			-3.625
262604.000			-14.500			-3.625
262705.000			-14.498			-3.625
262804.000			-14.498			-3.624
262904.000			-14.498			-3.624
263005.000			-14.496			-3.624
263104.000			-14.496			-3.624
263204.000			-14.496			-3.624
263305.000			-14.496			-3.624
263403.000			-14.495			-3.624
263505.000			-14.495			-3.624
263604.000			-14.494			-3.624
263704.000			-14.495			-3.624
263805.000			-14.494			-3.623
263904.000			-14.494			-3.623
264004.000			-14.493			-3.623
264105.000			-14.493			-3.623
264204.000			-14.492			-3.623
264303.000			-14.492			-3.623
264405.000			-14.493			-3.623
264503.000			-14.494			-3.623
264604.000			-14.494			-3.623
264705.000			-14.493			-3.623
264804.000			-14.492			-3.623
264904.000			-14.493			-3.623
265005.000			-14.493			-3.623
265104.000			-14.489			-3.622
265203.000			-14.490			-3.623
265305.000			-14.490			-3.623
265403.000			-14.490			-3.623
265504.000			-14.490			-3.622
265605.000			-14.490			-3.622
265704.000			-14.490			-3.623
265804.000			-14.491			-3.623
265905.000			-14.490			-3.623
266004.000			-14.491			-3.623
266103.000			-14.490			-3.623
266205.000			-14.491			-3.623
266304.000			-14.491			-3.623
266404.000			-14.490			-3.623
266505.000			-14.490			-3.622
266604.000			-14.490			-3.622
266705.000			-14.490			-3.622
266804.000			-14.489			-3.622
266904.000			-14.489			-3.622
267004.000			-14.489			-3.622
267104.000			-14.489			-3.622
267203.000			-14.487			-3.622
267305.000			-14.487			-3.622
267404.000			-14.486			-3.622
267504.000			-14.486			-3.622
267605.000			-14.486			-3.622
267704.000			-14.487			-3.622
267804.000			-14.487			-3.622
267904.000			-14.487			-3.622
268004.000			-14.486			-3.622
268103.000			-14.486			-3.621
268205.000			-14.485			-3.621
268304.000			-14.485			-3.621
268404.000			-14.486			-3.622
268505.000			-14.486			-3.621
268604.000			-14.486			-3.621
268704.000			-14.484			-3.621
268805.000			-14.485			-3.621
268904.000			-14.484			-3.621
269003.000			-14.485			-3.621
269105.000			-14.484			-3.621
269204.000			-14.483			-3.621
269304.000			-14.484			-3.621
269405.000			-14.485			-3.621
269504.000			-14.484			-3.621
269604.000			-14.484			-3.621
269704.000			-14.483			-3.621
269804.000			-14.483			-3.621
269904.000			-14.483			-3.621
270004.000			-14.483			-3.621
270103.000			-14.483			-3.621
270205.000			-14.483			-3.621
270304.000			-14.483			-3.621
270404.000			-14.483			-3.621
270505.000			-14.482			-3.621
270604.000			-14.481			-3.620
270704.000			-14.481			-3.620
270804.000			-14.480			-3.620
270904.000			-14.482			-3.620
271004.000			-14.481			-3.620
271105.000			-14.481			-3.620
271204.000			-14.481			-3.620
271304.000			-14.481			-3.620
271405.000			-14.481			-3.620
271504.000			-14.481			-3.620
271604.000			-14.481			-3.620
271704.000			-14.481			-3.620
271804.000			-14.481			-3.620
271904.000			-14.481			-3.620
272005.000			-14.481			-3.620
272104.000			-14.480			-3.620
272204.000			-14.481			-3.620
272305.000			-14.480			-3.620
272404.000			-14.480			-3.620
272504.000			-14.481			-3.620
272604.000			-14.481			-3.620
272704.000			-14.482			-3.620
272804.000			-14.482			-3.620
272904.000			-14.480			-3.620
273004.000			-14.480			-3.620
273105.000			-14.480			-3.620
273204.000			-14.480			-3.620
273304.000			-14.480			-3.620
273405.000			-14.479			-3.620
273503.000			-14.479			-3.620
273604.000			-14.480			-3.620
273705.000			-14.480			-3.620
273804.000			-14.478			-3.620
273904.000			-14.478			-3.620
274005.000			-14.478			-3.620
274104.000			-14.478			-3.620
274204.000			-14.478			-3.619
274305.000			-14.477			-3.619
274403.000			-14.477			-3.619
274504.000			-14.477			-3.619
274604.000			-14.477			-3.619
274704.000			-14.479			-3.620
274804.000			-14.477			-3.619
274905.000			-14.477			-3.619
275004.000			-14.477			-3.619
275104.000			-14.477			-3.619
275205.000			-14.476			-3.619
275304.000			-14.476			-3.619
275404.000			-14.477			-3.619
275504.000			-14.476			-3.619
275604.000			-14.476			-3.619
275704.000			-14.476			-3.619
275805.000			-14.476			-3.619
275904.000			-14.476			-3.619
276004.000			-14.475			-3.619
276105.000			-14.475			-3.619
276204.000			-14.474			-3.619
276305.000			-14.474			-3.618
276403.000			-14.474			-3.618
276504.000			-14.474			-3.618
276604.000			-14.473			-3.618
276704.000			-14.474			-3.618
276804.000			-14.474			-3.618
276905.000			-14.474			-3.618
277004.000			-14.473			-3.618
277104.000			-14.474			-3.618
277205.000			-14.474			-3.619
277303.000			-14.474			-3.618
277404.000			-14.473			-3.618
277504.000			-14.473			-3.618
277604.000			-14.472			-3.618
277704.000			-14.473			-3.618
277805.000			-14.472			-3.618
277904.000			-14.473			-3.618
278004.000			-14.473			-3.618
278105.000			-14.474			-3.618
278204.000			-14.473			-3.618
278304.000			-14.473			-3.618
278404.000			-14.473			-3.618
278504.000			-14.473			-3.618
278604.000			-14.473			-3.618
278705.000			-14.473			-3.618
278804.000			-14.473			-3.618
278904.000			-14.474			-3.619
279005.000			-14.474			-3.618
279104.000			-14.473			-3.618
279204.000			-14.472			-3.618
279303.000			-14.471			-3.618
279404.000			-14.471			-3.618
279505.000			-14.472			-3.618
279604.000			-14.472			-3.618
279704.000			-14.471			-3.618
279805.000			-14.471			-3.618
279904.000			-14.472			-3.618
280004.000			-14.471			-3.618
280105.000			-14.471			-3.618
280203.000			-14.471			-3.618
280304.000			-14.471			-3.618
280405.000			-14.472			-3.618
280504.000			-14.471			-3.618
280604.000			-14.470			-3.618
280705.000			-14.471			-3.618
280804.000			-14.471			-3.618
280904.000			-14.471			-3.618
281005.000			-14.471			-3.618
281103.000			-14.470			-3.617
281204.000			-14.469			-3.617
281304.000			-14.470			-3.617
281404.000			-14.470			-3.617
281504.000			-14.470			-3.617
281605.000			-14.469			-3.617
281704.000			-14.470			-3.618
281804.000			-14.470			-3.617
281905.000			-14.470			-3.618
282003.000			-14.470			-3.617
282104.000			-14.469			-3.617
282204.000			-14.469			-3.617
282304.000			-14.469			-3.617
282404.000			-14.469			-3.617
282504.000			-14.469			-3.617
282604.000			-14.468			-3.617
282705.000			-14.469			-3.617
282804.000			-14.468			-3.617
282904.000			-14.468			-3.617
283005.000			-14.469			-3.617
283103.000			-14.467			-3.617
283204.000			-14.466			-3.617
283305.000			-14.467			-3.617
283404.000			-14.468			-3.617
283504.000			-14.466			-3.617
283605.000			-14.467			-3.617
283704.000			-14.467			-3.617
283804.000			-14.467			-3.617
283905.000			-14.467			-3.617
284003.000			-14.466			-3.616
284104.000			-14.466			-3.616
284205.000			-14.466			-3.617
284304.000			-14.466			-3.617
284404.000			-14.466			-3.616
284505.000			-14.465			-3.616
284604.000			-14.465			-3.616
284704.000			-14.467			-3.617
284805.000			-14.467			-3.617
284903.000			-14.465			-3.616
285004.000			-14.465			-3.616
285105.000			-14.464			-3.616
285204.000			-14.464			-3.616
285304.000			-14.465			-3.616
285405.000			-14.465			-3.616
285504.000			-14.463			-3.616
285604.000			-14.463			-3.616
285705.000			-14.464			-3.616
285803.000			-14.463			-3.616
285905.000			-14.463			-3.616
286003.000			-14.463			-3.616
286104.000			-14.464			-3.616
286205.000			-14.464			-3.616
286304.000			-14.463			-3.616
286404.000			-14.463			-3.616
286505.000			-14.463			-3.616
286604.000			-14.463			-3.616
286703.000			-14.462			-3.616
286805.000			-14.462			-3.616
286904.000			-14.461			-3.615
287004.000			-14.462			-3.615
287105.000			-14.463			-3.616
287204.000			-14.462			-3.616
287304.000			-14.462			-3.616
287405.000			-14.462			-3.616
287504.000			-14.462			-3.616
287603.000			-14.462			-3.616
287705.000			-14.462			-3.615
287804.000			-14.462			-3.615
287904.000			-14.461			-3.615
288005.000			-14.461			-3.615
288104.000			-14.462			-3.615
288204.000			-14.462			-3.615
288305.000			-14.461			-3.615
288404.000			-14.460			-3.615
288503.000			-14.460			-3.615
288605.000			-14.461			-3.615
288704.000			-14.461			-3.615
288804.000			-14.460			-3.615
288905.000			-14.460			-3.615
289004.000			-14.460			-3.615
289105.000			-14.459			-3.615
289204.000			-14.459			-3.615
289304.000			-14.459			-3.615
289404.000			-14.459			-3.615
289504.000			-14.458			-3.615
289603.000			-14.458			-3.615
289705.000			-14.459			-3.615
289804.000			-14.459			-3.615
289904.000			-14.459			-3.615
290005.000			-14.459			-3.615
290104.000			-14.459			-3.615
290204.000			-14.458			-3.615
290305.000			-14.458			-3.615
290404.000			-14.458			-3.615
290503.000			-14.457			-3.614
290605.000			-14.457			-3.614
290704.000			-14.458			-3.614
290804.000			-14.458			-3.614
290905.000			-14.457			-3.614
291004.000			-14.457			-3.614
291104.000			-14.457			-3.614
291205.000			-14.458			-3.614
291304.000			-14.456			-3.614
291403.000			-14.455			-3.614
291505.000			-14.455			-3.614
291604.000			-14.455			-3.614
291704.000			-14.456			-3.614
291805.000			-14.456			-3.614
291904.000			-14.455			-3.614
292004.000			-14.455			-3.614
292104.000			-14.455			-3.614
292204.000			-14.456			-3.614
292304.000			-14.455			-3.614
292404.000			-14.455			-3.614
292504.000			-14.455			-3.614
292605.000			-14.455			-3.614
292704.000			-14.455			-3.614
292804.000			-14.454			-3.614
292905.000			-14.454			-3.614
293004.000			-14.453			-3.613
293104.000			-14.454			-3.613
293204.000			-14.454			-3.613
293304.000			-14.454			-3.613
293403.000			-14.453			-3.613
293505.000			-14.452			-3.613
293604.000			-14.453			-3.613
293704.000			-14.452			-3.613
293805.000			-14.453			-3.613
293904.000			-14.453			-3.613
294004.000			-14.453			-3.613
294104.000			-14.452			-3.613
294204.000			-14.453			-3.613
294303.000			-14.453			-3.613
294405.000			-14.451			-3.613
294504.000			-14.452			-3.613
294604.000			-14.452			-3.613
294705.000			-14.451			-3.613
294804.000			-14.451			-3.613
294904.000			-14.451			-3.613
295005.000			-14.450			-3.613
295104.000			-14.450			-3.612
295203.000			-14.449			-3.612
295305.000			-14.450			-3.612
295404.000			-14.450			-3.612
295505.000			-14.449			-3.612
295604.000			-14.450			-3.612
295704.000			-14.449			-3.612
295805.000			-14.449			-3.612
295904.000			-14.448			-3.612
296004.000			-14.448			-3.612
296104.000			-14.448			-3.612
296204.000			-14.448			-3.612
296303.000			-14.449			-3.612
296405.000			-14.448			-3.612
296504.000			-14.448			-3.612
296604.000			-14.448			-3.612
296705.000			-14.448			-3.612
296804.000			-14.448			-3.612
296904.000			-14.447			-3.612
297005.000			-14.446			-3.612
297104.000			-14.447			-3.612
297203.000			-14.446			-3.612
297305.000			-14.446			-3.611
297404.000			-14.446			-3.612
297504.000			-14.446			-3.611
297605.000			-14.446			-3.611
297704.000			-14.445			-3.611
297804.000			-14.446			-3.611
297905.000			-14.445			-3.611
298004.000			-14.445			-3.611
298103.000			-14.444			-3.611
298205.000			-14.443			-3.611
298304.000			-14.444			-3.611
298404.000			-14.443			-3.611
298505.000			-14.443			-3.611
298604.000			-14.443			-3.611
298705.000			-14.443			-3.611
298804.000			-14.443			-3.611
298904.000			-14.443			-3.611
299004.000			-14.442			-3.611
299104.000			-14.442			-3.611
299203.000			-14.442			-3.610
299305.000			-14.441			-3.610
299404.000			-14.441			-3.610
299504.000			-14.441			-3.610
299605.000			-14.441			-3.610
299704.000			-14.442			-3.611
299804.000			-14.442			-3.610
299904.000			-14.441			-3.610
