# Acquired on 25/01/2024 15:13:01 
# SPIDER: Creep_6mm_GRPCNT1454A-2
# CREEP MEASUREMENT

# time [ms]		force [N]		stiffness [N/mm]
0.000			-23.075			-3.846
103.000			-23.463			-3.911
204.000			-23.396			-3.899
305.000			-23.195			-3.866
404.000			-23.036			-3.839
504.000			-22.907			-3.818
604.000			-22.708			-3.785
704.000			-22.626			-3.771
804.000			-22.553			-3.759
905.000			-22.487			-3.748
1004.000			-22.428			-3.738
1103.000			-22.373			-3.729
1205.000			-22.321			-3.720
1304.000			-22.274			-3.712
1404.000			-22.188			-3.698
1505.000			-22.149			-3.692
1604.000			-22.112			-3.685
1705.000			-22.075			-3.679
1804.000			-22.041			-3.674
1904.000			-22.010			-3.668
2005.000			-21.980			-3.663
2104.000			-21.924			-3.654
2204.000			-21.896			-3.649
2304.000			-21.870			-3.645
2404.000			-21.846			-3.641
2504.000			-21.824			-3.637
2605.000			-21.800			-3.633
2704.000			-21.778			-3.630
2804.000			-21.737			-3.623
2905.000			-21.716			-3.619
3003.000			-21.696			-3.616
3104.000			-21.677			-3.613
3205.000			-21.660			-3.610
3304.000			-21.642			-3.607
3404.000			-21.625			-3.604
3504.000			-21.592			-3.599
3604.000			-21.576			-3.596
3704.000			-21.560			-3.593
3805.000			-21.545			-3.591
3904.000			-21.530			-3.588
4004.000			-21.514			-3.586
4105.000			-21.499			-3.583
4203.000			-21.484			-3.581
4304.000			-21.458			-3.576
4405.000			-21.444			-3.574
4504.000			-21.431			-3.572
4604.000			-21.418			-3.570
4704.000			-21.405			-3.568
4804.000			-21.392			-3.565
4905.000			-21.380			-3.563
5004.000			-21.358			-3.560
5104.000			-21.346			-3.558
5205.000			-21.335			-3.556
5304.000			-21.325			-3.554
5403.000			-21.314			-3.552
5505.000			-21.303			-3.550
5604.000			-21.292			-3.549
5704.000			-21.273			-3.545
5805.000			-21.263			-3.544
5904.000			-21.251			-3.542
6004.000			-21.242			-3.540
6104.000			-21.234			-3.539
6204.000			-21.226			-3.538
6304.000			-21.217			-3.536
6405.000			-21.198			-3.533
6504.000			-21.189			-3.532
6603.000			-21.181			-3.530
6705.000			-21.172			-3.529
6804.000			-21.165			-3.527
6904.000			-21.156			-3.526
7005.000			-21.148			-3.525
7104.000			-21.139			-3.523
7204.000			-21.125			-3.521
7304.000			-21.117			-3.520
7404.000			-21.109			-3.518
7504.000			-21.102			-3.517
7605.000			-21.094			-3.516
7704.000			-21.086			-3.514
7803.000			-21.079			-3.513
7905.000			-21.064			-3.511
8004.000			-21.058			-3.510
8105.000			-21.051			-3.508
8204.000			-21.044			-3.507
8304.000			-21.037			-3.506
8405.000			-21.029			-3.505
8504.000			-21.022			-3.504
8604.000			-21.011			-3.502
8705.000			-21.004			-3.501
8804.000			-20.997			-3.500
8904.000			-20.991			-3.498
9004.000			-20.985			-3.497
9104.000			-20.979			-3.497
9204.000			-20.973			-3.496
9305.000			-20.967			-3.494
9404.000			-20.956			-3.493
9504.000			-20.950			-3.492
9605.000			-20.944			-3.491
9703.000			-20.938			-3.490
9804.000			-20.932			-3.489
9905.000			-20.927			-3.488
10004.000			-20.923			-3.487
10104.000			-20.912			-3.485
10204.000			-20.905			-3.484
10304.000			-20.900			-3.483
10404.000			-20.895			-3.482
10505.000			-20.890			-3.482
10604.000			-20.885			-3.481
10704.000			-20.880			-3.480
10805.000			-20.869			-3.478
10903.000			-20.864			-3.477
11004.000			-20.859			-3.476
11105.000			-20.854			-3.476
11204.000			-20.850			-3.475
11305.000			-20.844			-3.474
11404.000			-20.839			-3.473
11504.000			-20.830			-3.472
11604.000			-20.825			-3.471
11704.000			-20.820			-3.470
11804.000			-20.817			-3.469
11905.000			-20.812			-3.469
12004.000			-20.807			-3.468
12104.000			-20.802			-3.467
12205.000			-20.798			-3.466
12303.000			-20.788			-3.465
12404.000			-20.784			-3.464
12505.000			-20.780			-3.463
12604.000			-20.775			-3.462
12704.000			-20.771			-3.462
12804.000			-20.767			-3.461
12904.000			-20.764			-3.461
13003.000			-20.754			-3.459
13105.000			-20.750			-3.458
13204.000			-20.747			-3.458
13304.000			-20.742			-3.457
13405.000			-20.739			-3.457
13503.000			-20.735			-3.456
13604.000			-20.730			-3.455
13705.000			-20.722			-3.454
13804.000			-20.718			-3.453
13904.000			-20.715			-3.452
14005.000			-20.710			-3.452
14104.000			-20.706			-3.451
14203.000			-20.703			-3.450
14305.000			-20.699			-3.450
14404.000			-20.694			-3.449
14505.000			-20.686			-3.448
14604.000			-20.682			-3.447
14704.000			-20.678			-3.446
14805.000			-20.675			-3.446
14903.000			-20.671			-3.445
15004.000			-20.667			-3.444
15105.000			-20.662			-3.444
15204.000			-20.655			-3.442
15304.000			-20.651			-3.442
15404.000			-20.648			-3.441
15504.000			-20.645			-3.441
15603.000			-20.640			-3.440
15705.000			-20.637			-3.440
15804.000			-20.634			-3.439
15904.000			-20.625			-3.437
16005.000			-20.622			-3.437
16103.000			-20.619			-3.436
16204.000			-20.615			-3.436
16305.000			-20.611			-3.435
16404.000			-20.607			-3.435
16504.000			-20.604			-3.434
16605.000			-20.598			-3.433
16704.000			-20.595			-3.432
16803.000			-20.592			-3.432
16905.000			-20.589			-3.431
17004.000			-20.585			-3.431
17104.000			-20.581			-3.430
17205.000			-20.578			-3.430
17304.000			-20.575			-3.429
17404.000			-20.568			-3.428
17503.000			-20.565			-3.427
17604.000			-20.562			-3.427
17705.000			-20.559			-3.427
17804.000			-20.556			-3.426
17904.000			-20.553			-3.425
18005.000			-20.550			-3.425
18104.000			-20.543			-3.424
18203.000			-20.541			-3.423
18305.000			-20.538			-3.423
18404.000			-20.535			-3.422
18504.000			-20.533			-3.422
18605.000			-20.531			-3.422
18704.000			-20.527			-3.421
18804.000			-20.521			-3.420
18904.000			-20.518			-3.420
19004.000			-20.515			-3.419
19104.000			-20.512			-3.419
19205.000			-20.510			-3.418
19304.000			-20.506			-3.418
19403.000			-20.503			-3.417
19505.000			-20.499			-3.417
19604.000			-20.496			-3.416
19704.000			-20.494			-3.416
19805.000			-20.490			-3.415
19904.000			-20.488			-3.415
20004.000			-20.486			-3.414
20104.000			-20.483			-3.414
20204.000			-20.481			-3.413
20304.000			-20.475			-3.412
20405.000			-20.472			-3.412
20504.000			-20.470			-3.412
20604.000			-20.467			-3.411
20705.000			-20.465			-3.411
20803.000			-20.462			-3.410
20905.000			-20.460			-3.410
21004.000			-20.456			-3.409
21104.000			-20.453			-3.409
21205.000			-20.451			-3.408
21304.000			-20.449			-3.408
21404.000			-20.446			-3.408
21505.000			-20.442			-3.407
21604.000			-20.439			-3.407
21704.000			-20.435			-3.406
21805.000			-20.434			-3.406
21904.000			-20.430			-3.405
22003.000			-20.427			-3.404
22105.000			-20.424			-3.404
22204.000			-20.422			-3.404
22304.000			-20.420			-3.403
22405.000			-20.416			-3.403
22504.000			-20.414			-3.402
22604.000			-20.411			-3.402
22704.000			-20.409			-3.401
22804.000			-20.406			-3.401
22904.000			-20.403			-3.400
23005.000			-20.401			-3.400
23104.000			-20.399			-3.400
23203.000			-20.394			-3.399
23305.000			-20.392			-3.399
23404.000			-20.389			-3.398
23504.000			-20.387			-3.398
23605.000			-20.384			-3.397
23704.000			-20.381			-3.397
23804.000			-20.380			-3.397
23903.000			-20.376			-3.396
24004.000			-20.373			-3.395
24105.000			-20.371			-3.395
24204.000			-20.368			-3.395
24304.000			-20.368			-3.395
24405.000			-20.366			-3.394
24504.000			-20.363			-3.394
24603.000			-20.359			-3.393
24705.000			-20.357			-3.393
24804.000			-20.354			-3.392
24904.000			-20.352			-3.392
25005.000			-20.349			-3.392
25103.000			-20.348			-3.391
25204.000			-20.346			-3.391
25305.000			-20.342			-3.390
25404.000			-20.339			-3.390
25504.000			-20.336			-3.389
25605.000			-20.336			-3.389
25704.000			-20.334			-3.389
25803.000			-20.332			-3.389
25905.000			-20.329			-3.388
26004.000			-20.327			-3.388
26104.000			-20.324			-3.387
26205.000			-20.322			-3.387
26304.000			-20.320			-3.387
26404.000			-20.317			-3.386
26504.000			-20.313			-3.386
26604.000			-20.312			-3.385
26704.000			-20.310			-3.385
26805.000			-20.307			-3.384
26904.000			-20.305			-3.384
27003.000			-20.302			-3.384
27105.000			-20.301			-3.384
27204.000			-20.300			-3.383
27305.000			-20.297			-3.383
27404.000			-20.294			-3.382
27504.000			-20.292			-3.382
27605.000			-20.289			-3.382
27703.000			-20.286			-3.381
27804.000			-20.284			-3.381
27905.000			-20.284			-3.381
28004.000			-20.282			-3.380
28104.000			-20.280			-3.380
28205.000			-20.277			-3.380
28304.000			-20.273			-3.379
28403.000			-20.271			-3.379
28505.000			-20.270			-3.378
28604.000			-20.268			-3.378
28704.000			-20.267			-3.378
28805.000			-20.264			-3.377
28904.000			-20.262			-3.377
29004.000			-20.259			-3.376
29104.000			-20.257			-3.376
29204.000			-20.254			-3.376
29304.000			-20.252			-3.375
29405.000			-20.251			-3.375
29504.000			-20.250			-3.375
29603.000			-20.247			-3.375
29705.000			-20.243			-3.374
29804.000			-20.241			-3.374
29904.000			-20.240			-3.373
30005.000			-20.238			-3.373
30104.000			-20.236			-3.373
30204.000			-20.234			-3.372
30303.000			-20.233			-3.372
30404.000			-20.231			-3.372
30505.000			-20.227			-3.371
30604.000			-20.226			-3.371
30704.000			-20.224			-3.371
30805.000			-20.223			-3.370
30904.000			-20.221			-3.370
31003.000			-20.219			-3.370
31105.000			-20.218			-3.370
31204.000			-20.213			-3.369
31304.000			-20.212			-3.369
31405.000			-20.210			-3.368
31503.000			-20.209			-3.368
31604.000			-20.208			-3.368
31705.000			-20.206			-3.368
31804.000			-20.204			-3.367
31904.000			-20.200			-3.367
32005.000			-20.198			-3.366
32104.000			-20.197			-3.366
32203.000			-20.195			-3.366
32305.000			-20.194			-3.366
32404.000			-20.192			-3.365
32504.000			-20.190			-3.365
32605.000			-20.187			-3.365
32703.000			-20.186			-3.364
32804.000			-20.183			-3.364
32905.000			-20.181			-3.363
33004.000			-20.180			-3.363
33104.000			-20.178			-3.363
33205.000			-20.177			-3.363
33304.000			-20.175			-3.363
33403.000			-20.171			-3.362
33505.000			-20.170			-3.362
33604.000			-20.169			-3.362
33705.000			-20.168			-3.361
33804.000			-20.166			-3.361
33904.000			-20.165			-3.361
34005.000			-20.163			-3.361
34104.000			-20.159			-3.360
34204.000			-20.158			-3.360
34305.000			-20.157			-3.359
34404.000			-20.154			-3.359
34504.000			-20.153			-3.359
34604.000			-20.152			-3.359
34704.000			-20.150			-3.358
34804.000			-20.147			-3.358
34905.000			-20.145			-3.357
35004.000			-20.143			-3.357
35104.000			-20.142			-3.357
35205.000			-20.140			-3.357
35303.000			-20.140			-3.357
35404.000			-20.138			-3.356
35505.000			-20.136			-3.356
35604.000			-20.134			-3.356
35704.000			-20.133			-3.355
35804.000			-20.131			-3.355
35904.000			-20.129			-3.355
36004.000			-20.127			-3.355
36105.000			-20.126			-3.354
36204.000			-20.125			-3.354
36304.000			-20.120			-3.353
36405.000			-20.120			-3.353
36503.000			-20.118			-3.353
36604.000			-20.116			-3.353
36705.000			-20.116			-3.353
36804.000			-20.115			-3.352
36905.000			-20.113			-3.352
37004.000			-20.109			-3.352
37104.000			-20.108			-3.351
37204.000			-20.107			-3.351
37304.000			-20.105			-3.351
37404.000			-20.103			-3.350
37505.000			-20.102			-3.350
37604.000			-20.101			-3.350
37703.000			-20.098			-3.350
37805.000			-20.097			-3.349
37904.000			-20.095			-3.349
38004.000			-20.094			-3.349
38105.000			-20.093			-3.349
38204.000			-20.092			-3.349
38304.000			-20.089			-3.348
38404.000			-20.088			-3.348
38504.000			-20.086			-3.348
38604.000			-20.084			-3.347
38705.000			-20.083			-3.347
38804.000			-20.081			-3.347
38904.000			-20.079			-3.347
39005.000			-20.078			-3.346
39103.000			-20.077			-3.346
39204.000			-20.075			-3.346
39305.000			-20.074			-3.346
39404.000			-20.072			-3.345
39504.000			-20.071			-3.345
39604.000			-20.068			-3.345
39704.000			-20.066			-3.344
39804.000			-20.067			-3.344
39904.000			-20.064			-3.344
40004.000			-20.062			-3.344
40105.000			-20.060			-3.343
40204.000			-20.059			-3.343
40303.000			-20.058			-3.343
40405.000			-20.056			-3.343
40504.000			-20.055			-3.343
40604.000			-20.052			-3.342
40705.000			-20.051			-3.342
40804.000			-20.050			-3.342
40904.000			-20.049			-3.341
41004.000			-20.048			-3.341
41104.000			-20.047			-3.341
41204.000			-20.045			-3.341
41305.000			-20.043			-3.341
41404.000			-20.041			-3.340
41503.000			-20.040			-3.340
41605.000			-20.039			-3.340
41704.000			-20.038			-3.340
41804.000			-20.037			-3.339
41905.000			-20.035			-3.339
42004.000			-20.034			-3.339
42104.000			-20.031			-3.339
42204.000			-20.029			-3.338
42304.000			-20.028			-3.338
42404.000			-20.028			-3.338
42505.000			-20.026			-3.338
42604.000			-20.024			-3.337
42703.000			-20.023			-3.337
42805.000			-20.021			-3.337
42904.000			-20.020			-3.337
43004.000			-20.019			-3.337
43105.000			-20.017			-3.336
43204.000			-20.016			-3.336
43305.000			-20.015			-3.336
43403.000			-20.015			-3.336
43504.000			-20.013			-3.336
43605.000			-20.010			-3.335
43704.000			-20.008			-3.335
43804.000			-20.009			-3.335
43904.000			-20.007			-3.334
44004.000			-20.004			-3.334
44104.000			-20.004			-3.334
44205.000			-20.004			-3.334
44304.000			-20.000			-3.333
44404.000			-19.998			-3.333
44505.000			-19.997			-3.333
44603.000			-19.996			-3.333
44704.000			-19.996			-3.333
44805.000			-19.994			-3.332
44904.000			-19.992			-3.332
45004.000			-19.990			-3.332
45105.000			-19.990			-3.332
45204.000			-19.987			-3.331
45303.000			-19.986			-3.331
45405.000			-19.986			-3.331
45504.000			-19.984			-3.331
45604.000			-19.982			-3.330
45705.000			-19.981			-3.330
45804.000			-19.980			-3.330
45904.000			-19.978			-3.330
46004.000			-19.977			-3.329
46104.000			-19.976			-3.329
46203.000			-19.976			-3.329
46305.000			-19.974			-3.329
46404.000			-19.972			-3.329
46505.000			-19.970			-3.328
46604.000			-19.969			-3.328
46704.000			-19.968			-3.328
46805.000			-19.968			-3.328
46903.000			-19.966			-3.328
47004.000			-19.965			-3.328
47105.000			-19.964			-3.327
47204.000			-19.961			-3.327
47304.000			-19.960			-3.327
47405.000			-19.960			-3.327
47504.000			-19.958			-3.326
47603.000			-19.956			-3.326
47705.000			-19.955			-3.326
47804.000			-19.954			-3.326
47904.000			-19.953			-3.325
48005.000			-19.953			-3.325
48104.000			-19.952			-3.325
48204.000			-19.950			-3.325
48304.000			-19.949			-3.325
48404.000			-19.948			-3.325
48504.000			-19.945			-3.324
48605.000			-19.944			-3.324
48704.000			-19.943			-3.324
48804.000			-19.942			-3.324
48905.000			-19.941			-3.323
49003.000			-19.940			-3.323
49104.000			-19.939			-3.323
49205.000			-19.937			-3.323
49304.000			-19.936			-3.323
49404.000			-19.933			-3.322
49504.000			-19.933			-3.322
49604.000			-19.932			-3.322
49703.000			-19.931			-3.322
49804.000			-19.930			-3.322
49903.000			-19.929			-3.321
50005.000			-19.927			-3.321
50104.000			-19.926			-3.321
50204.000			-19.924			-3.321
50305.000			-19.923			-3.320
50404.000			-19.922			-3.320
50504.000			-19.921			-3.320
50604.000			-19.919			-3.320
50704.000			-19.918			-3.320
50804.000			-19.917			-3.319
50905.000			-19.916			-3.319
51004.000			-19.915			-3.319
51104.000			-19.914			-3.319
51205.000			-19.913			-3.319
51303.000			-19.912			-3.319
51404.000			-19.910			-3.318
51505.000			-19.909			-3.318
51604.000			-19.908			-3.318
51704.000			-19.907			-3.318
51804.000			-19.905			-3.317
51904.000			-19.904			-3.317
52003.000			-19.904			-3.317
52105.000			-19.903			-3.317
52204.000			-19.902			-3.317
52304.000			-19.901			-3.317
52405.000			-19.899			-3.317
52503.000			-19.898			-3.316
52604.000			-19.897			-3.316
52703.000			-19.896			-3.316
52804.000			-19.895			-3.316
52905.000			-19.895			-3.316
53004.000			-19.892			-3.315
53104.000			-19.890			-3.315
53205.000			-19.889			-3.315
53304.000			-19.888			-3.315
53403.000			-19.888			-3.315
53505.000			-19.887			-3.314
53604.000			-19.885			-3.314
53704.000			-19.884			-3.314
53805.000			-19.882			-3.314
53904.000			-19.881			-3.314
54004.000			-19.881			-3.313
54104.000			-19.880			-3.313
54204.000			-19.879			-3.313
54304.000			-19.879			-3.313
54405.000			-19.878			-3.313
54504.000			-19.876			-3.313
54604.000			-19.875			-3.313
54705.000			-19.873			-3.312
54803.000			-19.871			-3.312
54904.000			-19.870			-3.312
55005.000			-19.870			-3.312
55104.000			-19.868			-3.311
55204.000			-19.867			-3.311
55305.000			-19.867			-3.311
55404.000			-19.865			-3.311
55503.000			-19.864			-3.311
55605.000			-19.863			-3.311
55704.000			-19.862			-3.310
55804.000			-19.861			-3.310
55905.000			-19.859			-3.310
56004.000			-19.859			-3.310
56105.000			-19.857			-3.310
56203.000			-19.856			-3.309
56304.000			-19.855			-3.309
56405.000			-19.855			-3.309
56504.000			-19.854			-3.309
56604.000			-19.853			-3.309
56705.000			-19.851			-3.309
56804.000			-19.849			-3.308
56903.000			-19.849			-3.308
57005.000			-19.848			-3.308
57104.000			-19.847			-3.308
57204.000			-19.846			-3.308
57305.000			-19.846			-3.308
57404.000			-19.844			-3.307
57504.000			-19.843			-3.307
57604.000			-19.842			-3.307
57704.000			-19.841			-3.307
57804.000			-19.840			-3.307
57905.000			-19.839			-3.307
58004.000			-19.838			-3.306
58104.000			-19.836			-3.306
58205.000			-19.835			-3.306
58303.000			-19.835			-3.306
58404.000			-19.834			-3.306
58505.000			-19.833			-3.306
58604.000			-19.832			-3.305
58704.000			-19.830			-3.305
58805.000			-19.830			-3.305
58904.000			-19.828			-3.305
59004.000			-19.827			-3.304
59105.000			-19.826			-3.304
59203.000			-19.826			-3.304
59305.000			-19.825			-3.304
59404.000			-19.823			-3.304
59504.000			-19.822			-3.304
59605.000			-19.821			-3.303
59704.000			-19.820			-3.303
59804.000			-19.819			-3.303
59904.000			-19.818			-3.303
60004.000			-19.817			-3.303
60104.000			-19.817			-3.303
60205.000			-19.816			-3.303
60304.000			-19.814			-3.302
60404.000			-19.813			-3.302
60505.000			-19.811			-3.302
60603.000			-19.810			-3.302
60704.000			-19.811			-3.302
60805.000			-19.810			-3.302
60904.000			-19.809			-3.301
61004.000			-19.806			-3.301
61105.000			-19.806			-3.301
61204.000			-19.805			-3.301
61303.000			-19.804			-3.301
61405.000			-19.803			-3.300
61504.000			-19.803			-3.300
61604.000			-19.801			-3.300
61705.000			-19.800			-3.300
61803.000			-19.800			-3.300
61904.000			-19.799			-3.300
62004.000			-19.798			-3.300
62104.000			-19.797			-3.299
62204.000			-19.796			-3.299
62304.000			-19.795			-3.299
62404.000			-19.793			-3.299
62505.000			-19.791			-3.299
62604.000			-19.791			-3.299
62703.000			-19.791			-3.298
62805.000			-19.790			-3.298
62904.000			-19.790			-3.298
63004.000			-19.788			-3.298
63105.000			-19.787			-3.298
63204.000			-19.787			-3.298
63304.000			-19.786			-3.298
63404.000			-19.784			-3.297
63504.000			-19.783			-3.297
63604.000			-19.782			-3.297
63705.000			-19.780			-3.297
63804.000			-19.780			-3.297
63904.000			-19.780			-3.297
64005.000			-19.778			-3.296
64103.000			-19.778			-3.296
64204.000			-19.777			-3.296
64305.000			-19.776			-3.296
64404.000			-19.775			-3.296
64504.000			-19.774			-3.296
64605.000			-19.773			-3.295
64704.000			-19.771			-3.295
64803.000			-19.770			-3.295
64905.000			-19.770			-3.295
65004.000			-19.769			-3.295
65104.000			-19.769			-3.295
65205.000			-19.767			-3.295
65304.000			-19.766			-3.294
65404.000			-19.766			-3.294
65503.000			-19.765			-3.294
65604.000			-19.763			-3.294
65705.000			-19.763			-3.294
65804.000			-19.762			-3.294
65904.000			-19.761			-3.293
66005.000			-19.759			-3.293
66104.000			-19.758			-3.293
66203.000			-19.758			-3.293
66305.000			-19.757			-3.293
66404.000			-19.756			-3.293
66504.000			-19.754			-3.292
66605.000			-19.753			-3.292
66704.000			-19.752			-3.292
66804.000			-19.752			-3.292
66905.000			-19.752			-3.292
67004.000			-19.750			-3.292
67103.000			-19.750			-3.292
67205.000			-19.749			-3.291
67304.000			-19.748			-3.291
67404.000			-19.747			-3.291
67505.000			-19.747			-3.291
67604.000			-19.745			-3.291
67704.000			-19.744			-3.291
67804.000			-19.743			-3.290
67904.000			-19.742			-3.290
68004.000			-19.741			-3.290
68105.000			-19.741			-3.290
68204.000			-19.741			-3.290
68304.000			-19.738			-3.290
68405.000			-19.737			-3.290
68503.000			-19.737			-3.289
68604.000			-19.737			-3.289
68705.000			-19.735			-3.289
68804.000			-19.734			-3.289
68905.000			-19.734			-3.289
69004.000			-19.732			-3.289
69104.000			-19.730			-3.288
69204.000			-19.730			-3.288
69304.000			-19.729			-3.288
69403.000			-19.729			-3.288
69505.000			-19.727			-3.288
69604.000			-19.727			-3.288
69704.000			-19.727			-3.288
69805.000			-19.725			-3.288
69904.000			-19.724			-3.287
70004.000			-19.724			-3.287
70104.000			-19.723			-3.287
70204.000			-19.722			-3.287
70304.000			-19.722			-3.287
70405.000			-19.721			-3.287
70504.000			-19.719			-3.287
70604.000			-19.719			-3.286
70705.000			-19.718			-3.286
70803.000			-19.716			-3.286
70904.000			-19.716			-3.286
71005.000			-19.716			-3.286
71104.000			-19.715			-3.286
71204.000			-19.712			-3.285
71305.000			-19.712			-3.285
71404.000			-19.711			-3.285
71503.000			-19.711			-3.285
71605.000			-19.711			-3.285
71704.000			-19.709			-3.285
71804.000			-19.708			-3.285
71905.000			-19.708			-3.285
72004.000			-19.706			-3.284
72105.000			-19.706			-3.284
72203.000			-19.706			-3.284
72304.000			-19.705			-3.284
72405.000			-19.704			-3.284
72504.000			-19.703			-3.284
72604.000			-19.703			-3.284
72705.000			-19.700			-3.283
72804.000			-19.700			-3.283
72903.000			-19.701			-3.283
73005.000			-19.699			-3.283
73104.000			-19.698			-3.283
73204.000			-19.697			-3.283
73305.000			-19.696			-3.283
73404.000			-19.696			-3.283
73504.000			-19.695			-3.282
73604.000			-19.694			-3.282
73704.000			-19.693			-3.282
73804.000			-19.692			-3.282
73905.000			-19.691			-3.282
74004.000			-19.690			-3.282
74104.000			-19.690			-3.282
74205.000			-19.689			-3.281
74303.000			-19.688			-3.281
74404.000			-19.688			-3.281
74505.000			-19.687			-3.281
74604.000			-19.685			-3.281
74704.000			-19.684			-3.281
74805.000			-19.685			-3.281
74904.000			-19.683			-3.281
75004.000			-19.682			-3.280
75105.000			-19.681			-3.280
75203.000			-19.680			-3.280
75305.000			-19.679			-3.280
75404.000			-19.679			-3.280
75504.000			-19.678			-3.280
75605.000			-19.677			-3.280
75704.000			-19.677			-3.279
75804.000			-19.676			-3.279
75904.000			-19.676			-3.279
76004.000			-19.675			-3.279
76104.000			-19.674			-3.279
76205.000			-19.673			-3.279
76304.000			-19.670			-3.278
76404.000			-19.669			-3.278
76505.000			-19.669			-3.278
76603.000			-19.670			-3.278
76704.000			-19.669			-3.278
76805.000			-19.669			-3.278
76904.000			-19.668			-3.278
77004.000			-19.667			-3.278
77105.000			-19.665			-3.278
77204.000			-19.665			-3.277
77304.000			-19.663			-3.277
77405.000			-19.663			-3.277
77503.000			-19.662			-3.277
77604.000			-19.662			-3.277
77705.000			-19.661			-3.277
77804.000			-19.660			-3.277
77904.000			-19.660			-3.277
78005.000			-19.659			-3.277
78104.000			-19.657			-3.276
78203.000			-19.657			-3.276
78305.000			-19.657			-3.276
78404.000			-19.656			-3.276
78505.000			-19.654			-3.276
78604.000			-19.654			-3.276
78704.000			-19.653			-3.276
78805.000			-19.652			-3.275
78903.000			-19.652			-3.275
79004.000			-19.651			-3.275
79105.000			-19.651			-3.275
79204.000			-19.649			-3.275
79304.000			-19.648			-3.275
79405.000			-19.648			-3.275
79504.000			-19.648			-3.275
79603.000			-19.647			-3.274
79705.000			-19.646			-3.274
79803.000			-19.645			-3.274
79904.000			-19.645			-3.274
80005.000			-19.643			-3.274
80104.000			-19.643			-3.274
80204.000			-19.641			-3.274
80305.000			-19.641			-3.273
80404.000			-19.640			-3.273
80503.000			-19.640			-3.273
80605.000			-19.640			-3.273
80704.000			-19.638			-3.273
80804.000			-19.637			-3.273
80905.000			-19.636			-3.273
81004.000			-19.636			-3.273
81104.000			-19.635			-3.273
81204.000			-19.635			-3.273
81304.000			-19.634			-3.272
81404.000			-19.633			-3.272
81504.000			-19.633			-3.272
81604.000			-19.631			-3.272
81705.000			-19.631			-3.272
81804.000			-19.630			-3.272
81903.000			-19.630			-3.272
82005.000			-19.629			-3.271
82104.000			-19.628			-3.271
82204.000			-19.626			-3.271
82305.000			-19.626			-3.271
82404.000			-19.627			-3.271
82504.000			-19.626			-3.271
82604.000			-19.623			-3.271
82704.000			-19.624			-3.271
82804.000			-19.623			-3.271
82905.000			-19.622			-3.270
83004.000			-19.621			-3.270
83104.000			-19.619			-3.270
83205.000			-19.619			-3.270
83303.000			-19.618			-3.270
83404.000			-19.618			-3.270
83505.000			-19.619			-3.270
83604.000			-19.617			-3.269
83704.000			-19.615			-3.269
83805.000			-19.614			-3.269
83904.000			-19.615			-3.269
84003.000			-19.614			-3.269
84105.000			-19.613			-3.269
84204.000			-19.613			-3.269
84304.000			-19.611			-3.268
84405.000			-19.610			-3.268
84504.000			-19.610			-3.268
84604.000			-19.609			-3.268
84703.000			-19.608			-3.268
84804.000			-19.609			-3.268
84905.000			-19.609			-3.268
85004.000			-19.608			-3.268
85104.000			-19.606			-3.268
85205.000			-19.605			-3.267
85304.000			-19.605			-3.267
85403.000			-19.605			-3.267
85505.000			-19.603			-3.267
85604.000			-19.603			-3.267
85704.000			-19.602			-3.267
85805.000			-19.601			-3.267
85904.000			-19.601			-3.267
86004.000			-19.600			-3.267
86104.000			-19.599			-3.266
86204.000			-19.598			-3.266
86304.000			-19.598			-3.266
86405.000			-19.597			-3.266
86504.000			-19.596			-3.266
86604.000			-19.595			-3.266
86705.000			-19.595			-3.266
86803.000			-19.595			-3.266
86904.000			-19.594			-3.266
87004.000			-19.593			-3.266
87104.000			-19.593			-3.266
87204.000			-19.592			-3.265
87305.000			-19.592			-3.265
87404.000			-19.591			-3.265
87504.000			-19.590			-3.265
87605.000			-19.590			-3.265
87703.000			-19.589			-3.265
87804.000			-19.589			-3.265
87905.000			-19.588			-3.265
88004.000			-19.587			-3.264
88105.000			-19.585			-3.264
88204.000			-19.586			-3.264
88304.000			-19.584			-3.264
88404.000			-19.584			-3.264
88504.000			-19.583			-3.264
88604.000			-19.582			-3.264
88705.000			-19.582			-3.264
88804.000			-19.581			-3.263
88904.000			-19.580			-3.263
89005.000			-19.579			-3.263
89104.000			-19.578			-3.263
89204.000			-19.578			-3.263
89304.000			-19.577			-3.263
89404.000			-19.577			-3.263
89504.000			-19.577			-3.263
89605.000			-19.575			-3.263
89704.000			-19.575			-3.263
89804.000			-19.574			-3.262
89905.000			-19.573			-3.262
90003.000			-19.572			-3.262
90104.000			-19.572			-3.262
90205.000			-19.571			-3.262
90304.000			-19.570			-3.262
90404.000			-19.569			-3.262
90505.000			-19.569			-3.262
90604.000			-19.570			-3.262
90703.000			-19.570			-3.262
90805.000			-19.567			-3.261
90904.000			-19.566			-3.261
91004.000			-19.566			-3.261
91105.000			-19.565			-3.261
91204.000			-19.564			-3.261
91305.000			-19.564			-3.261
91403.000			-19.564			-3.261
91504.000			-19.563			-3.260
91604.000			-19.561			-3.260
91704.000			-19.561			-3.260
91804.000			-19.559			-3.260
91905.000			-19.559			-3.260
92004.000			-19.559			-3.260
92104.000			-19.559			-3.260
92205.000			-19.558			-3.260
92303.000			-19.559			-3.260
92404.000			-19.557			-3.260
92505.000			-19.555			-3.259
92604.000			-19.554			-3.259
92704.000			-19.554			-3.259
92805.000			-19.554			-3.259
92904.000			-19.554			-3.259
93003.000			-19.553			-3.259
93105.000			-19.553			-3.259
93204.000			-19.552			-3.259
93304.000			-19.552			-3.259
93405.000			-19.551			-3.259
93504.000			-19.550			-3.258
93604.000			-19.549			-3.258
93704.000			-19.548			-3.258
93804.000			-19.548			-3.258
93904.000			-19.547			-3.258
94005.000			-19.546			-3.258
94104.000			-19.546			-3.258
94204.000			-19.546			-3.258
94305.000			-19.545			-3.257
94403.000			-19.544			-3.257
94505.000			-19.543			-3.257
94604.000			-19.543			-3.257
94704.000			-19.542			-3.257
94805.000			-19.541			-3.257
94904.000			-19.541			-3.257
95004.000			-19.541			-3.257
95104.000			-19.540			-3.257
95204.000			-19.540			-3.257
95304.000			-19.539			-3.257
95405.000			-19.539			-3.256
95504.000			-19.539			-3.256
95604.000			-19.538			-3.256
95705.000			-19.536			-3.256
95803.000			-19.536			-3.256
95904.000			-19.536			-3.256
96005.000			-19.535			-3.256
96104.000			-19.534			-3.256
96204.000			-19.534			-3.256
96305.000			-19.532			-3.255
96404.000			-19.532			-3.255
96503.000			-19.531			-3.255
96605.000			-19.530			-3.255
96704.000			-19.530			-3.255
96804.000			-19.529			-3.255
96905.000			-19.529			-3.255
97004.000			-19.529			-3.255
97104.000			-19.528			-3.255
97204.000			-19.528			-3.255
97304.000			-19.527			-3.255
97403.000			-19.526			-3.254
97505.000			-19.526			-3.254
97604.000			-19.524			-3.254
97705.000			-19.524			-3.254
97804.000			-19.523			-3.254
97904.000			-19.522			-3.254
98005.000			-19.522			-3.254
98103.000			-19.522			-3.254
98204.000			-19.521			-3.253
98305.000			-19.520			-3.253
98404.000			-19.519			-3.253
98504.000			-19.519			-3.253
98605.000			-19.519			-3.253
98704.000			-19.518			-3.253
98803.000			-19.516			-3.253
98905.000			-19.515			-3.252
99004.000			-19.516			-3.253
99104.000			-19.516			-3.253
99205.000			-19.516			-3.253
99304.000			-19.516			-3.253
99404.000			-19.514			-3.252
99504.000			-19.513			-3.252
99604.000			-19.513			-3.252
99704.000			-19.513			-3.252
99805.000			-19.511			-3.252
99904.000			-19.511			-3.252
100004.000			-19.510			-3.252
100105.000			-19.509			-3.251
100203.000			-19.508			-3.251
100304.000			-19.509			-3.252
100405.000			-19.507			-3.251
100504.000			-19.507			-3.251
100604.000			-19.506			-3.251
100704.000			-19.506			-3.251
100804.000			-19.506			-3.251
100903.000			-19.506			-3.251
101004.000			-19.504			-3.251
101103.000			-19.503			-3.251
101205.000			-19.503			-3.250
101304.000			-19.503			-3.250
101404.000			-19.502			-3.250
101505.000			-19.501			-3.250
101603.000			-19.501			-3.250
101704.000			-19.501			-3.250
101805.000			-19.500			-3.250
101904.000			-19.499			-3.250
102004.000			-19.498			-3.250
102105.000			-19.498			-3.250
102204.000			-19.498			-3.250
102304.000			-19.497			-3.250
102405.000			-19.497			-3.250
102503.000			-19.496			-3.249
102604.000			-19.495			-3.249
102705.000			-19.494			-3.249
102804.000			-19.493			-3.249
102904.000			-19.493			-3.249
103005.000			-19.493			-3.249
103104.000			-19.493			-3.249
103203.000			-19.492			-3.249
103305.000			-19.491			-3.248
103404.000			-19.490			-3.248
103504.000			-19.490			-3.248
103605.000			-19.489			-3.248
103704.000			-19.487			-3.248
103804.000			-19.487			-3.248
103903.000			-19.487			-3.248
104004.000			-19.486			-3.248
104105.000			-19.486			-3.248
104204.000			-19.486			-3.248
104304.000			-19.486			-3.248
104405.000			-19.486			-3.248
104504.000			-19.485			-3.248
104604.000			-19.485			-3.247
104705.000			-19.483			-3.247
104803.000			-19.482			-3.247
104904.000			-19.481			-3.247
105005.000			-19.481			-3.247
105104.000			-19.480			-3.247
105204.000			-19.480			-3.247
105305.000			-19.481			-3.247
105404.000			-19.479			-3.246
105503.000			-19.478			-3.246
105605.000			-19.479			-3.246
105704.000			-19.478			-3.246
105804.000			-19.477			-3.246
105905.000			-19.476			-3.246
106004.000			-19.475			-3.246
106104.000			-19.475			-3.246
106204.000			-19.474			-3.246
106304.000			-19.473			-3.246
106403.000			-19.473			-3.245
106505.000			-19.472			-3.245
106604.000			-19.472			-3.245
106704.000			-19.472			-3.245
106805.000			-19.471			-3.245
106904.000			-19.471			-3.245
107004.000			-19.471			-3.245
107103.000			-19.470			-3.245
107204.000			-19.469			-3.245
107305.000			-19.469			-3.245
107404.000			-19.468			-3.245
107504.000			-19.468			-3.245
107605.000			-19.468			-3.245
107704.000			-19.467			-3.245
107803.000			-19.466			-3.244
107905.000			-19.464			-3.244
108004.000			-19.464			-3.244
108104.000			-19.465			-3.244
108205.000			-19.464			-3.244
108304.000			-19.463			-3.244
108404.000			-19.462			-3.244
108504.000			-19.462			-3.244
108604.000			-19.462			-3.244
108703.000			-19.461			-3.243
108805.000			-19.461			-3.243
108904.000			-19.461			-3.244
109004.000			-19.460			-3.243
109105.000			-19.458			-3.243
109204.000			-19.458			-3.243
109304.000			-19.459			-3.243
109404.000			-19.458			-3.243
109504.000			-19.457			-3.243
109604.000			-19.457			-3.243
109705.000			-19.455			-3.243
109804.000			-19.454			-3.242
109904.000			-19.455			-3.242
110005.000			-19.454			-3.242
110103.000			-19.453			-3.242
110204.000			-19.453			-3.242
110305.000			-19.452			-3.242
110404.000			-19.452			-3.242
110505.000			-19.450			-3.242
110604.000			-19.449			-3.242
110704.000			-19.450			-3.242
110805.000			-19.450			-3.242
110904.000			-19.450			-3.242
111003.000			-19.448			-3.241
111105.000			-19.449			-3.241
111204.000			-19.448			-3.241
111304.000			-19.447			-3.241
111405.000			-19.447			-3.241
111504.000			-19.446			-3.241
111604.000			-19.445			-3.241
111704.000			-19.445			-3.241
111804.000			-19.445			-3.241
111904.000			-19.444			-3.241
112005.000			-19.443			-3.240
112104.000			-19.442			-3.240
112204.000			-19.442			-3.240
112305.000			-19.443			-3.240
112403.000			-19.442			-3.240
112504.000			-19.440			-3.240
112605.000			-19.440			-3.240
112704.000			-19.440			-3.240
112804.000			-19.439			-3.240
112905.000			-19.439			-3.240
113004.000			-19.439			-3.240
113104.000			-19.438			-3.240
113205.000			-19.438			-3.240
113303.000			-19.437			-3.240
113404.000			-19.436			-3.239
113505.000			-19.436			-3.239
113604.000			-19.435			-3.239
113705.000			-19.434			-3.239
113804.000			-19.434			-3.239
113904.000			-19.434			-3.239
114004.000			-19.434			-3.239
114104.000			-19.432			-3.239
114204.000			-19.432			-3.239
114305.000			-19.431			-3.238
114404.000			-19.431			-3.238
114504.000			-19.430			-3.238
114605.000			-19.430			-3.238
114703.000			-19.429			-3.238
114804.000			-19.428			-3.238
114905.000			-19.427			-3.238
115004.000			-19.428			-3.238
115104.000			-19.427			-3.238
115205.000			-19.427			-3.238
115304.000			-19.425			-3.237
115404.000			-19.425			-3.237
115505.000			-19.425			-3.238
115603.000			-19.424			-3.237
115704.000			-19.424			-3.237
115805.000			-19.424			-3.237
115904.000			-19.424			-3.237
116004.000			-19.423			-3.237
116105.000			-19.422			-3.237
116204.000			-19.421			-3.237
116303.000			-19.420			-3.237
116405.000			-19.420			-3.237
116504.000			-19.419			-3.237
116604.000			-19.419			-3.236
116705.000			-19.417			-3.236
116804.000			-19.417			-3.236
116905.000			-19.417			-3.236
117003.000			-19.417			-3.236
117104.000			-19.416			-3.236
117205.000			-19.416			-3.236
117304.000			-19.415			-3.236
117404.000			-19.413			-3.236
117505.000			-19.412			-3.235
117604.000			-19.413			-3.236
117703.000			-19.412			-3.235
117805.000			-19.412			-3.235
117904.000			-19.412			-3.235
118004.000			-19.411			-3.235
118105.000			-19.410			-3.235
118204.000			-19.409			-3.235
118304.000			-19.409			-3.235
118404.000			-19.409			-3.235
118504.000			-19.410			-3.235
118603.000			-19.410			-3.235
118705.000			-19.408			-3.235
118804.000			-19.407			-3.235
118904.000			-19.407			-3.234
119005.000			-19.406			-3.234
119104.000			-19.406			-3.234
119204.000			-19.406			-3.234
119304.000			-19.404			-3.234
119404.000			-19.404			-3.234
119504.000			-19.404			-3.234
119605.000			-19.404			-3.234
119704.000			-19.403			-3.234
119804.000			-19.403			-3.234
119905.000			-19.402			-3.234
120003.000			-19.401			-3.234
120105.000			-19.401			-3.234
120204.000			-19.401			-3.233
120304.000			-19.400			-3.233
120405.000			-19.399			-3.233
120504.000			-19.399			-3.233
120604.000			-19.398			-3.233
120704.000			-19.398			-3.233
120804.000			-19.398			-3.233
120904.000			-19.397			-3.233
121005.000			-19.396			-3.233
121104.000			-19.396			-3.233
121204.000			-19.397			-3.233
121305.000			-19.394			-3.232
121403.000			-19.394			-3.232
121504.000			-19.393			-3.232
121605.000			-19.393			-3.232
121704.000			-19.392			-3.232
121804.000			-19.393			-3.232
121905.000			-19.392			-3.232
122004.000			-19.392			-3.232
122104.000			-19.392			-3.232
122205.000			-19.390			-3.232
122303.000			-19.390			-3.232
122404.000			-19.390			-3.232
122505.000			-19.390			-3.232
122604.000			-19.389			-3.232
122704.000			-19.387			-3.231
122805.000			-19.388			-3.231
122904.000			-19.388			-3.231
123003.000			-19.386			-3.231
123105.000			-19.386			-3.231
123204.000			-19.386			-3.231
123305.000			-19.385			-3.231
123404.000			-19.385			-3.231
123504.000			-19.384			-3.231
123605.000			-19.383			-3.230
123703.000			-19.383			-3.230
123804.000			-19.383			-3.230
123904.000			-19.383			-3.231
124004.000			-19.382			-3.230
124104.000			-19.381			-3.230
124205.000			-19.382			-3.230
124304.000			-19.381			-3.230
124404.000			-19.379			-3.230
124505.000			-19.379			-3.230
124603.000			-19.379			-3.230
124704.000			-19.378			-3.230
124805.000			-19.378			-3.230
124904.000			-19.377			-3.230
125004.000			-19.377			-3.230
125105.000			-19.378			-3.230
125204.000			-19.376			-3.229
125303.000			-19.375			-3.229
125405.000			-19.375			-3.229
125504.000			-19.375			-3.229
125604.000			-19.375			-3.229
125705.000			-19.374			-3.229
125804.000			-19.373			-3.229
125904.000			-19.373			-3.229
126005.000			-19.373			-3.229
126104.000			-19.374			-3.229
126203.000			-19.373			-3.229
126305.000			-19.372			-3.229
126404.000			-19.372			-3.229
126505.000			-19.371			-3.228
126604.000			-19.369			-3.228
126704.000			-19.368			-3.228
126805.000			-19.368			-3.228
126903.000			-19.368			-3.228
127004.000			-19.368			-3.228
127105.000			-19.368			-3.228
127204.000			-19.366			-3.228
127304.000			-19.366			-3.228
127405.000			-19.366			-3.228
127504.000			-19.366			-3.228
127604.000			-19.366			-3.228
127705.000			-19.365			-3.228
127803.000			-19.364			-3.227
127904.000			-19.364			-3.227
128005.000			-19.364			-3.227
128104.000			-19.364			-3.227
128204.000			-19.363			-3.227
128305.000			-19.363			-3.227
128404.000			-19.362			-3.227
128503.000			-19.361			-3.227
128605.000			-19.361			-3.227
128704.000			-19.361			-3.227
128804.000			-19.361			-3.227
128905.000			-19.359			-3.227
129004.000			-19.358			-3.226
129104.000			-19.357			-3.226
129204.000			-19.356			-3.226
129304.000			-19.357			-3.226
129403.000			-19.357			-3.226
129505.000			-19.356			-3.226
129604.000			-19.355			-3.226
129705.000			-19.355			-3.226
129804.000			-19.355			-3.226
129904.000			-19.355			-3.226
130005.000			-19.355			-3.226
130103.000			-19.354			-3.226
130204.000			-19.353			-3.226
130305.000			-19.352			-3.225
130404.000			-19.352			-3.225
130504.000			-19.351			-3.225
130605.000			-19.351			-3.225
130704.000			-19.351			-3.225
130803.000			-19.350			-3.225
130905.000			-19.349			-3.225
131004.000			-19.349			-3.225
131104.000			-19.348			-3.225
131205.000			-19.348			-3.225
131304.000			-19.347			-3.225
131404.000			-19.347			-3.224
131505.000			-19.347			-3.225
131604.000			-19.347			-3.225
131703.000			-19.346			-3.224
131805.000			-19.345			-3.224
131904.000			-19.345			-3.224
132004.000			-19.345			-3.224
132105.000			-19.344			-3.224
132204.000			-19.343			-3.224
132304.000			-19.342			-3.224
132404.000			-19.343			-3.224
132504.000			-19.343			-3.224
132603.000			-19.343			-3.224
132705.000			-19.343			-3.224
132804.000			-19.341			-3.224
132905.000			-19.341			-3.223
133004.000			-19.341			-3.223
133104.000			-19.340			-3.223
133205.000			-19.339			-3.223
133303.000			-19.338			-3.223
133404.000			-19.338			-3.223
133504.000			-19.338			-3.223
133604.000			-19.337			-3.223
133704.000			-19.337			-3.223
133805.000			-19.336			-3.223
133904.000			-19.335			-3.223
134004.000			-19.335			-3.222
134105.000			-19.335			-3.223
134203.000			-19.335			-3.223
134304.000			-19.335			-3.222
134405.000			-19.334			-3.222
134504.000			-19.334			-3.222
134604.000			-19.333			-3.222
134705.000			-19.333			-3.222
134804.000			-19.333			-3.222
134904.000			-19.331			-3.222
135005.000			-19.331			-3.222
135103.000			-19.331			-3.222
135204.000			-19.330			-3.222
135305.000			-19.329			-3.222
135404.000			-19.329			-3.222
135504.000			-19.329			-3.221
135605.000			-19.329			-3.221
135704.000			-19.329			-3.221
135804.000			-19.328			-3.221
135905.000			-19.328			-3.221
136003.000			-19.326			-3.221
136105.000			-19.326			-3.221
136204.000			-19.327			-3.221
136304.000			-19.326			-3.221
136405.000			-19.326			-3.221
136504.000			-19.326			-3.221
136604.000			-19.326			-3.221
136705.000			-19.325			-3.221
136804.000			-19.324			-3.221
136903.000			-19.322			-3.220
137005.000			-19.321			-3.220
137104.000			-19.321			-3.220
137204.000			-19.322			-3.220
137305.000			-19.322			-3.220
137404.000			-19.320			-3.220
137504.000			-19.320			-3.220
137605.000			-19.321			-3.220
137704.000			-19.321			-3.220
137803.000			-19.320			-3.220
137905.000			-19.319			-3.220
138004.000			-19.318			-3.220
138104.000			-19.318			-3.220
138205.000			-19.317			-3.220
138304.000			-19.317			-3.220
138404.000			-19.317			-3.219
138505.000			-19.316			-3.219
138604.000			-19.316			-3.219
138703.000			-19.315			-3.219
138805.000			-19.314			-3.219
138904.000			-19.314			-3.219
139004.000			-19.314			-3.219
139105.000			-19.312			-3.219
139204.000			-19.312			-3.219
139305.000			-19.312			-3.219
139404.000			-19.311			-3.219
139504.000			-19.311			-3.219
139604.000			-19.310			-3.218
139704.000			-19.309			-3.218
139804.000			-19.310			-3.218
139905.000			-19.311			-3.218
140004.000			-19.310			-3.218
140104.000			-19.309			-3.218
140205.000			-19.310			-3.218
140303.000			-19.309			-3.218
140404.000			-19.308			-3.218
140504.000			-19.307			-3.218
140604.000			-19.305			-3.218
140704.000			-19.306			-3.218
140805.000			-19.307			-3.218
140904.000			-19.307			-3.218
141004.000			-19.305			-3.218
141105.000			-19.304			-3.217
141203.000			-19.304			-3.217
141304.000			-19.304			-3.217
141405.000			-19.304			-3.217
141504.000			-19.304			-3.217
141604.000			-19.303			-3.217
141705.000			-19.303			-3.217
141804.000			-19.302			-3.217
141904.000			-19.300			-3.217
142005.000			-19.300			-3.217
142103.000			-19.301			-3.217
142204.000			-19.300			-3.217
142305.000			-19.300			-3.217
142404.000			-19.299			-3.217
142505.000			-19.299			-3.216
142604.000			-19.298			-3.216
142704.000			-19.299			-3.216
142805.000			-19.297			-3.216
142904.000			-19.297			-3.216
143003.000			-19.296			-3.216
143105.000			-19.295			-3.216
143204.000			-19.296			-3.216
143304.000			-19.294			-3.216
143405.000			-19.294			-3.216
143504.000			-19.294			-3.216
143604.000			-19.293			-3.215
143705.000			-19.292			-3.215
143804.000			-19.292			-3.215
143903.000			-19.290			-3.215
144005.000			-19.290			-3.215
144104.000			-19.289			-3.215
144204.000			-19.289			-3.215
144305.000			-19.289			-3.215
144404.000			-19.290			-3.215
144504.000			-19.289			-3.215
144605.000			-19.289			-3.215
144704.000			-19.288			-3.215
144803.000			-19.287			-3.214
144905.000			-19.286			-3.214
145004.000			-19.286			-3.214
145104.000			-19.286			-3.214
145205.000			-19.285			-3.214
145304.000			-19.285			-3.214
145404.000			-19.284			-3.214
145504.000			-19.283			-3.214
145604.000			-19.283			-3.214
145703.000			-19.282			-3.214
145804.000			-19.284			-3.214
145903.000			-19.283			-3.214
146005.000			-19.282			-3.214
146104.000			-19.282			-3.214
146204.000			-19.280			-3.213
146305.000			-19.281			-3.214
146404.000			-19.281			-3.213
146504.000			-19.280			-3.213
146604.000			-19.279			-3.213
146704.000			-19.279			-3.213
146803.000			-19.278			-3.213
146905.000			-19.280			-3.213
147004.000			-19.279			-3.213
147104.000			-19.279			-3.213
147205.000			-19.279			-3.213
147304.000			-19.278			-3.213
147404.000			-19.277			-3.213
147505.000			-19.277			-3.213
147604.000			-19.277			-3.213
147703.000			-19.277			-3.213
147805.000			-19.277			-3.213
147904.000			-19.275			-3.213
148004.000			-19.275			-3.213
148105.000			-19.275			-3.212
148204.000			-19.274			-3.212
148304.000			-19.273			-3.212
148405.000			-19.273			-3.212
148504.000			-19.272			-3.212
148603.000			-19.272			-3.212
148705.000			-19.272			-3.212
148804.000			-19.272			-3.212
148905.000			-19.272			-3.212
149004.000			-19.271			-3.212
149104.000			-19.270			-3.212
149205.000			-19.269			-3.212
149304.000			-19.269			-3.211
149404.000			-19.269			-3.211
149504.000			-19.268			-3.211
149604.000			-19.268			-3.211
149703.000			-19.269			-3.211
149805.000			-19.267			-3.211
149904.000			-19.268			-3.211
150004.000			-19.266			-3.211
150105.000			-19.266			-3.211
150204.000			-19.267			-3.211
150304.000			-19.266			-3.211
150404.000			-19.264			-3.211
150504.000			-19.264			-3.211
150603.000			-19.264			-3.211
150705.000			-19.263			-3.211
150804.000			-19.262			-3.210
150904.000			-19.261			-3.210
151005.000			-19.261			-3.210
151104.000			-19.261			-3.210
151204.000			-19.260			-3.210
151304.000			-19.259			-3.210
151404.000			-19.258			-3.210
151503.000			-19.258			-3.210
151605.000			-19.257			-3.210
151704.000			-19.257			-3.209
151804.000			-19.256			-3.209
151905.000			-19.258			-3.210
152004.000			-19.256			-3.209
152105.000			-19.256			-3.209
152203.000			-19.255			-3.209
152304.000			-19.255			-3.209
152404.000			-19.255			-3.209
152504.000			-19.255			-3.209
152604.000			-19.255			-3.209
152705.000			-19.254			-3.209
152804.000			-19.253			-3.209
152904.000			-19.253			-3.209
153005.000			-19.254			-3.209
153103.000			-19.254			-3.209
153204.000			-19.253			-3.209
153304.000			-19.252			-3.209
153404.000			-19.252			-3.209
153504.000			-19.253			-3.209
153605.000			-19.254			-3.209
153704.000			-19.253			-3.209
153804.000			-19.252			-3.209
153905.000			-19.252			-3.209
154003.000			-19.250			-3.208
154104.000			-19.251			-3.208
154205.000			-19.250			-3.208
154304.000			-19.250			-3.208
154404.000			-19.250			-3.208
154505.000			-19.249			-3.208
154604.000			-19.249			-3.208
154704.000			-19.248			-3.208
154805.000			-19.248			-3.208
154903.000			-19.248			-3.208
155004.000			-19.248			-3.208
155105.000			-19.248			-3.208
155204.000			-19.247			-3.208
155305.000			-19.246			-3.208
155404.000			-19.247			-3.208
155504.000			-19.246			-3.208
155605.000			-19.245			-3.208
155704.000			-19.245			-3.207
155803.000			-19.246			-3.208
155905.000			-19.245			-3.207
156004.000			-19.244			-3.207
156104.000			-19.244			-3.207
156205.000			-19.244			-3.207
156304.000			-19.243			-3.207
156404.000			-19.243			-3.207
156505.000			-19.243			-3.207
156604.000			-19.243			-3.207
156703.000			-19.242			-3.207
156805.000			-19.242			-3.207
156904.000			-19.242			-3.207
157004.000			-19.241			-3.207
157105.000			-19.241			-3.207
157204.000			-19.241			-3.207
157304.000			-19.240			-3.207
157405.000			-19.238			-3.206
157504.000			-19.238			-3.206
157603.000			-19.239			-3.207
157705.000			-19.238			-3.206
157804.000			-19.237			-3.206
157904.000			-19.237			-3.206
158005.000			-19.238			-3.206
158104.000			-19.238			-3.206
158204.000			-19.237			-3.206
158304.000			-19.236			-3.206
158404.000			-19.236			-3.206
158503.000			-19.235			-3.206
158604.000			-19.234			-3.206
158703.000			-19.235			-3.206
158805.000			-19.235			-3.206
158904.000			-19.234			-3.206
159004.000			-19.234			-3.206
159105.000			-19.233			-3.206
159204.000			-19.233			-3.206
159304.000			-19.233			-3.205
159404.000			-19.232			-3.205
159504.000			-19.232			-3.205
159603.000			-19.231			-3.205
159705.000			-19.231			-3.205
159804.000			-19.231			-3.205
159904.000			-19.231			-3.205
160005.000			-19.230			-3.205
160104.000			-19.229			-3.205
160204.000			-19.229			-3.205
160304.000			-19.229			-3.205
160404.000			-19.229			-3.205
160504.000			-19.230			-3.205
160605.000			-19.228			-3.205
160704.000			-19.227			-3.205
160804.000			-19.227			-3.204
160905.000			-19.227			-3.204
161004.000			-19.227			-3.204
161104.000			-19.226			-3.204
161204.000			-19.226			-3.204
161304.000			-19.225			-3.204
161404.000			-19.225			-3.204
161504.000			-19.225			-3.204
161604.000			-19.224			-3.204
161705.000			-19.224			-3.204
161804.000			-19.224			-3.204
161904.000			-19.224			-3.204
162005.000			-19.224			-3.204
162103.000			-19.223			-3.204
162204.000			-19.223			-3.204
162305.000			-19.222			-3.204
162404.000			-19.221			-3.204
162504.000			-19.222			-3.204
162605.000			-19.221			-3.204
162704.000			-19.221			-3.204
162803.000			-19.220			-3.203
162905.000			-19.220			-3.203
163003.000			-19.220			-3.203
163104.000			-19.220			-3.203
163205.000			-19.219			-3.203
163304.000			-19.218			-3.203
163404.000			-19.218			-3.203
163505.000			-19.216			-3.203
163604.000			-19.217			-3.203
163703.000			-19.217			-3.203
163805.000			-19.216			-3.203
163903.000			-19.216			-3.203
164004.000			-19.216			-3.203
164105.000			-19.215			-3.202
164204.000			-19.214			-3.202
164304.000			-19.214			-3.202
164405.000			-19.213			-3.202
164504.000			-19.214			-3.202
164603.000			-19.213			-3.202
164705.000			-19.213			-3.202
164803.000			-19.212			-3.202
164905.000			-19.212			-3.202
165004.000			-19.213			-3.202
165104.000			-19.212			-3.202
165205.000			-19.212			-3.202
165304.000			-19.211			-3.202
165404.000			-19.211			-3.202
165504.000			-19.211			-3.202
165604.000			-19.210			-3.202
165704.000			-19.210			-3.202
165805.000			-19.209			-3.202
165904.000			-19.209			-3.202
166004.000			-19.208			-3.201
166105.000			-19.208			-3.201
166204.000			-19.208			-3.201
166304.000			-19.208			-3.201
166404.000			-19.208			-3.201
166504.000			-19.206			-3.201
166604.000			-19.207			-3.201
166705.000			-19.206			-3.201
166804.000			-19.206			-3.201
166904.000			-19.206			-3.201
167005.000			-19.206			-3.201
167104.000			-19.206			-3.201
167204.000			-19.205			-3.201
167304.000			-19.204			-3.201
167404.000			-19.204			-3.201
167503.000			-19.203			-3.201
167605.000			-19.203			-3.200
167704.000			-19.202			-3.200
167804.000			-19.202			-3.200
167905.000			-19.202			-3.200
168004.000			-19.201			-3.200
168105.000			-19.201			-3.200
168203.000			-19.201			-3.200
168304.000			-19.201			-3.200
168405.000			-19.200			-3.200
168504.000			-19.200			-3.200
168604.000			-19.200			-3.200
168705.000			-19.200			-3.200
168804.000			-19.199			-3.200
168904.000			-19.198			-3.200
169005.000			-19.198			-3.200
169103.000			-19.198			-3.200
169204.000			-19.198			-3.200
169304.000			-19.198			-3.200
169404.000			-19.198			-3.200
169504.000			-19.198			-3.200
169605.000			-19.197			-3.200
169704.000			-19.196			-3.199
169804.000			-19.195			-3.199
169905.000			-19.196			-3.199
170004.000			-19.196			-3.199
170104.000			-19.195			-3.199
170204.000			-19.195			-3.199
170304.000			-19.195			-3.199
170404.000			-19.194			-3.199
170505.000			-19.193			-3.199
170604.000			-19.192			-3.199
170704.000			-19.192			-3.199
170805.000			-19.192			-3.199
170904.000			-19.191			-3.198
171004.000			-19.192			-3.199
171103.000			-19.191			-3.198
171204.000			-19.189			-3.198
171305.000			-19.190			-3.198
171404.000			-19.190			-3.198
171504.000			-19.190			-3.198
171605.000			-19.189			-3.198
171704.000			-19.189			-3.198
171804.000			-19.189			-3.198
171905.000			-19.189			-3.198
172003.000			-19.189			-3.198
172104.000			-19.187			-3.198
172204.000			-19.187			-3.198
172304.000			-19.186			-3.198
172404.000			-19.186			-3.198
172505.000			-19.186			-3.198
172604.000			-19.186			-3.198
172704.000			-19.185			-3.197
172805.000			-19.184			-3.197
172903.000			-19.185			-3.198
173004.000			-19.185			-3.197
173104.000			-19.184			-3.197
173204.000			-19.183			-3.197
173304.000			-19.182			-3.197
173405.000			-19.182			-3.197
173504.000			-19.182			-3.197
173604.000			-19.182			-3.197
173705.000			-19.183			-3.197
173803.000			-19.181			-3.197
173904.000			-19.181			-3.197
174004.000			-19.181			-3.197
174104.000			-19.181			-3.197
174204.000			-19.180			-3.197
174304.000			-19.180			-3.197
174404.000			-19.180			-3.197
174505.000			-19.178			-3.196
174604.000			-19.179			-3.196
174704.000			-19.179			-3.196
174805.000			-19.178			-3.196
174903.000			-19.177			-3.196
175004.000			-19.177			-3.196
175105.000			-19.177			-3.196
175204.000			-19.176			-3.196
175304.000			-19.177			-3.196
175405.000			-19.177			-3.196
175504.000			-19.175			-3.196
175604.000			-19.174			-3.196
175705.000			-19.176			-3.196
175803.000			-19.174			-3.196
175904.000			-19.174			-3.196
176005.000			-19.175			-3.196
176104.000			-19.175			-3.196
176204.000			-19.173			-3.196
176305.000			-19.172			-3.195
176404.000			-19.173			-3.195
176504.000			-19.172			-3.195
176605.000			-19.172			-3.195
176703.000			-19.172			-3.195
176804.000			-19.171			-3.195
176905.000			-19.170			-3.195
177004.000			-19.170			-3.195
177104.000			-19.170			-3.195
177205.000			-19.170			-3.195
177304.000			-19.170			-3.195
177404.000			-19.169			-3.195
177505.000			-19.169			-3.195
177603.000			-19.169			-3.195
177705.000			-19.169			-3.195
177803.000			-19.168			-3.195
177904.000			-19.168			-3.195
178005.000			-19.168			-3.195
178104.000			-19.167			-3.194
178204.000			-19.167			-3.195
178305.000			-19.167			-3.194
178404.000			-19.166			-3.194
178504.000			-19.165			-3.194
178605.000			-19.165			-3.194
178703.000			-19.164			-3.194
178804.000			-19.164			-3.194
178905.000			-19.164			-3.194
179004.000			-19.165			-3.194
179104.000			-19.164			-3.194
179205.000			-19.164			-3.194
179304.000			-19.164			-3.194
179404.000			-19.164			-3.194
179505.000			-19.163			-3.194
179603.000			-19.163			-3.194
179704.000			-19.162			-3.194
179804.000			-19.160			-3.193
179904.000			-19.161			-3.193
180004.000			-19.161			-3.193
180105.000			-19.161			-3.193
180204.000			-19.161			-3.193
180304.000			-19.160			-3.193
180405.000			-19.159			-3.193
180503.000			-19.159			-3.193
180604.000			-19.159			-3.193
180703.000			-19.158			-3.193
180804.000			-19.158			-3.193
180905.000			-19.157			-3.193
181004.000			-19.157			-3.193
181104.000			-19.157			-3.193
181205.000			-19.157			-3.193
181304.000			-19.156			-3.193
181403.000			-19.155			-3.193
181505.000			-19.155			-3.192
181604.000			-19.156			-3.193
181704.000			-19.155			-3.192
181805.000			-19.155			-3.192
181904.000			-19.154			-3.192
182004.000			-19.154			-3.192
182105.000			-19.153			-3.192
182204.000			-19.153			-3.192
182303.000			-19.152			-3.192
182405.000			-19.152			-3.192
182504.000			-19.151			-3.192
182604.000			-19.152			-3.192
182705.000			-19.151			-3.192
182804.000			-19.151			-3.192
182904.000			-19.151			-3.192
183005.000			-19.151			-3.192
183104.000			-19.150			-3.192
183203.000			-19.149			-3.192
183305.000			-19.150			-3.192
183404.000			-19.149			-3.192
183504.000			-19.149			-3.191
183605.000			-19.148			-3.191
183704.000			-19.148			-3.191
183804.000			-19.148			-3.191
183904.000			-19.147			-3.191
184004.000			-19.147			-3.191
184103.000			-19.147			-3.191
184204.000			-19.146			-3.191
184304.000			-19.146			-3.191
184405.000			-19.145			-3.191
184504.000			-19.145			-3.191
184604.000			-19.145			-3.191
184705.000			-19.144			-3.191
184804.000			-19.145			-3.191
184904.000			-19.145			-3.191
185004.000			-19.143			-3.190
185104.000			-19.144			-3.191
185204.000			-19.144			-3.191
185305.000			-19.142			-3.190
185404.000			-19.143			-3.191
185504.000			-19.142			-3.190
185605.000			-19.142			-3.190
185704.000			-19.143			-3.190
185804.000			-19.141			-3.190
185904.000			-19.141			-3.190
186004.000			-19.141			-3.190
186104.000			-19.141			-3.190
186205.000			-19.140			-3.190
186304.000			-19.140			-3.190
186404.000			-19.139			-3.190
186505.000			-19.138			-3.190
186604.000			-19.139			-3.190
186704.000			-19.139			-3.190
186804.000			-19.138			-3.190
186904.000			-19.136			-3.189
187004.000			-19.137			-3.189
187104.000			-19.137			-3.189
187204.000			-19.136			-3.189
187305.000			-19.136			-3.189
187404.000			-19.135			-3.189
187504.000			-19.135			-3.189
187605.000			-19.135			-3.189
187703.000			-19.134			-3.189
187804.000			-19.134			-3.189
187904.000			-19.134			-3.189
188004.000			-19.134			-3.189
188104.000			-19.133			-3.189
188205.000			-19.132			-3.189
188304.000			-19.133			-3.189
188404.000			-19.132			-3.189
188505.000			-19.133			-3.189
188603.000			-19.132			-3.189
188704.000			-19.132			-3.189
188804.000			-19.132			-3.189
188904.000			-19.132			-3.189
189004.000			-19.131			-3.189
189105.000			-19.130			-3.188
189204.000			-19.131			-3.188
189304.000			-19.130			-3.188
189405.000			-19.129			-3.188
189503.000			-19.130			-3.188
189604.000			-19.129			-3.188
189704.000			-19.128			-3.188
189804.000			-19.129			-3.188
189904.000			-19.129			-3.188
190005.000			-19.128			-3.188
190104.000			-19.128			-3.188
190204.000			-19.129			-3.188
190305.000			-19.128			-3.188
190404.000			-19.126			-3.188
190505.000			-19.126			-3.188
190603.000			-19.126			-3.188
190704.000			-19.126			-3.188
190805.000			-19.126			-3.188
190904.000			-19.125			-3.188
191004.000			-19.125			-3.187
191105.000			-19.124			-3.187
191204.000			-19.123			-3.187
191304.000			-19.124			-3.187
191405.000			-19.124			-3.187
191503.000			-19.124			-3.187
191604.000			-19.123			-3.187
191705.000			-19.122			-3.187
191804.000			-19.122			-3.187
191904.000			-19.122			-3.187
192005.000			-19.120			-3.187
192104.000			-19.120			-3.187
192204.000			-19.120			-3.187
192305.000			-19.121			-3.187
192403.000			-19.121			-3.187
192504.000			-19.120			-3.187
192605.000			-19.120			-3.187
192704.000			-19.119			-3.187
192804.000			-19.119			-3.186
192905.000			-19.119			-3.186
193004.000			-19.118			-3.186
193103.000			-19.117			-3.186
193205.000			-19.119			-3.186
193303.000			-19.118			-3.186
193404.000			-19.119			-3.187
193505.000			-19.117			-3.186
193604.000			-19.117			-3.186
193705.000			-19.117			-3.186
193804.000			-19.117			-3.186
193904.000			-19.117			-3.186
194005.000			-19.116			-3.186
194104.000			-19.115			-3.186
194203.000			-19.115			-3.186
194305.000			-19.115			-3.186
194404.000			-19.115			-3.186
194504.000			-19.114			-3.186
194605.000			-19.114			-3.186
194704.000			-19.113			-3.186
194804.000			-19.114			-3.186
194905.000			-19.113			-3.185
195004.000			-19.113			-3.185
195103.000			-19.112			-3.185
195205.000			-19.111			-3.185
195304.000			-19.112			-3.185
195404.000			-19.112			-3.185
195505.000			-19.112			-3.185
195604.000			-19.110			-3.185
195704.000			-19.109			-3.185
195804.000			-19.110			-3.185
195904.000			-19.110			-3.185
196003.000			-19.110			-3.185
196105.000			-19.109			-3.185
196204.000			-19.109			-3.185
196304.000			-19.109			-3.185
196405.000			-19.109			-3.185
196504.000			-19.108			-3.185
196604.000			-19.107			-3.185
196703.000			-19.108			-3.185
196804.000			-19.107			-3.184
196903.000			-19.105			-3.184
197004.000			-19.105			-3.184
197104.000			-19.106			-3.184
197205.000			-19.104			-3.184
197304.000			-19.105			-3.184
197404.000			-19.103			-3.184
197505.000			-19.103			-3.184
197603.000			-19.102			-3.184
197704.000			-19.103			-3.184
197804.000			-19.103			-3.184
197904.000			-19.102			-3.184
198004.000			-19.102			-3.184
198105.000			-19.102			-3.184
198204.000			-19.101			-3.184
198304.000			-19.101			-3.183
198405.000			-19.101			-3.184
198503.000			-19.101			-3.183
198604.000			-19.100			-3.183
198704.000			-19.101			-3.183
198804.000			-19.099			-3.183
198904.000			-19.099			-3.183
199005.000			-19.100			-3.183
199104.000			-19.100			-3.183
199204.000			-19.099			-3.183
199305.000			-19.099			-3.183
199404.000			-19.099			-3.183
199504.000			-19.098			-3.183
199604.000			-19.097			-3.183
199704.000			-19.096			-3.183
199803.000			-19.096			-3.183
199905.000			-19.096			-3.183
200004.000			-19.096			-3.183
200105.000			-19.096			-3.183
200204.000			-19.096			-3.183
200304.000			-19.096			-3.183
200405.000			-19.096			-3.183
200503.000			-19.096			-3.183
200604.000			-19.095			-3.183
200704.000			-19.094			-3.182
200804.000			-19.094			-3.182
200904.000			-19.095			-3.182
201005.000			-19.093			-3.182
201104.000			-19.093			-3.182
201204.000			-19.094			-3.182
201305.000			-19.093			-3.182
201403.000			-19.093			-3.182
201504.000			-19.092			-3.182
201605.000			-19.092			-3.182
201704.000			-19.091			-3.182
201804.000			-19.092			-3.182
201905.000			-19.092			-3.182
202004.000			-19.092			-3.182
202104.000			-19.092			-3.182
202205.000			-19.091			-3.182
202303.000			-19.090			-3.182
202404.000			-19.090			-3.182
202505.000			-19.090			-3.182
202604.000			-19.090			-3.182
202704.000			-19.089			-3.182
202805.000			-19.088			-3.181
202904.000			-19.089			-3.181
203004.000			-19.089			-3.181
203105.000			-19.089			-3.181
203203.000			-19.088			-3.181
203305.000			-19.087			-3.181
203404.000			-19.088			-3.181
203504.000			-19.089			-3.181
203605.000			-19.088			-3.181
203704.000			-19.087			-3.181
203804.000			-19.087			-3.181
203905.000			-19.086			-3.181
204004.000			-19.087			-3.181
204103.000			-19.087			-3.181
204205.000			-19.085			-3.181
204304.000			-19.085			-3.181
204404.000			-19.085			-3.181
204505.000			-19.084			-3.181
204604.000			-19.084			-3.181
204704.000			-19.085			-3.181
204804.000			-19.084			-3.181
204904.000			-19.084			-3.181
205003.000			-19.083			-3.181
205105.000			-19.085			-3.181
205204.000			-19.084			-3.181
205304.000			-19.083			-3.180
205405.000			-19.083			-3.180
205504.000			-19.083			-3.180
205604.000			-19.082			-3.180
205704.000			-19.082			-3.180
205804.000			-19.081			-3.180
205903.000			-19.081			-3.180
206005.000			-19.081			-3.180
206104.000			-19.081			-3.180
206204.000			-19.081			-3.180
206305.000			-19.080			-3.180
206404.000			-19.079			-3.180
206505.000			-19.078			-3.180
206603.000			-19.078			-3.180
206704.000			-19.079			-3.180
206804.000			-19.078			-3.180
206904.000			-19.078			-3.180
207004.000			-19.077			-3.180
207105.000			-19.077			-3.179
207204.000			-19.077			-3.180
207304.000			-19.076			-3.179
207405.000			-19.077			-3.179
207503.000			-19.076			-3.179
207604.000			-19.076			-3.179
207704.000			-19.076			-3.179
207804.000			-19.075			-3.179
207904.000			-19.076			-3.179
208005.000			-19.076			-3.179
208104.000			-19.074			-3.179
208204.000			-19.074			-3.179
208305.000			-19.074			-3.179
208403.000			-19.074			-3.179
208504.000			-19.073			-3.179
208604.000			-19.072			-3.179
208704.000			-19.072			-3.179
208804.000			-19.072			-3.179
208905.000			-19.072			-3.179
209004.000			-19.072			-3.179
209104.000			-19.071			-3.178
209205.000			-19.071			-3.179
209303.000			-19.072			-3.179
209404.000			-19.072			-3.179
209505.000			-19.069			-3.178
209604.000			-19.069			-3.178
209705.000			-19.070			-3.178
209804.000			-19.070			-3.178
209904.000			-19.068			-3.178
210005.000			-19.069			-3.178
210104.000			-19.068			-3.178
210203.000			-19.069			-3.178
210305.000			-19.068			-3.178
210404.000			-19.068			-3.178
210504.000			-19.068			-3.178
210605.000			-19.067			-3.178
210704.000			-19.066			-3.178
210804.000			-19.066			-3.178
210905.000			-19.066			-3.178
211004.000			-19.066			-3.178
211103.000			-19.065			-3.178
211205.000			-19.066			-3.178
211304.000			-19.066			-3.178
211404.000			-19.066			-3.178
211505.000			-19.066			-3.178
211604.000			-19.065			-3.177
211704.000			-19.064			-3.177
211804.000			-19.064			-3.177
211904.000			-19.063			-3.177
212003.000			-19.063			-3.177
212105.000			-19.063			-3.177
212204.000			-19.063			-3.177
212304.000			-19.062			-3.177
212405.000			-19.062			-3.177
212504.000			-19.062			-3.177
212604.000			-19.062			-3.177
212703.000			-19.061			-3.177
212804.000			-19.062			-3.177
212905.000			-19.062			-3.177
213004.000			-19.060			-3.177
213104.000			-19.060			-3.177
213205.000			-19.060			-3.177
213304.000			-19.059			-3.177
213404.000			-19.059			-3.176
213505.000			-19.059			-3.176
213603.000			-19.059			-3.177
213704.000			-19.058			-3.176
213805.000			-19.059			-3.176
213904.000			-19.057			-3.176
214004.000			-19.057			-3.176
214105.000			-19.057			-3.176
214204.000			-19.057			-3.176
214304.000			-19.057			-3.176
214405.000			-19.057			-3.176
214503.000			-19.057			-3.176
214604.000			-19.056			-3.176
214705.000			-19.056			-3.176
214804.000			-19.056			-3.176
214904.000			-19.055			-3.176
215005.000			-19.056			-3.176
215104.000			-19.056			-3.176
215204.000			-19.055			-3.176
215305.000			-19.053			-3.176
215403.000			-19.054			-3.176
215504.000			-19.054			-3.176
215605.000			-19.054			-3.176
215704.000			-19.053			-3.175
215804.000			-19.052			-3.175
215904.000			-19.053			-3.175
216004.000			-19.053			-3.175
216103.000			-19.053			-3.175
216204.000			-19.052			-3.175
216303.000			-19.051			-3.175
216405.000			-19.052			-3.175
216504.000			-19.052			-3.175
216604.000			-19.051			-3.175
216705.000			-19.050			-3.175
216804.000			-19.049			-3.175
216904.000			-19.049			-3.175
217004.000			-19.048			-3.175
217104.000			-19.048			-3.175
217203.000			-19.049			-3.175
217305.000			-19.049			-3.175
217404.000			-19.049			-3.175
217504.000			-19.048			-3.175
217605.000			-19.048			-3.175
217704.000			-19.047			-3.175
217804.000			-19.048			-3.175
217904.000			-19.048			-3.175
218004.000			-19.048			-3.175
218103.000			-19.047			-3.174
218205.000			-19.045			-3.174
218304.000			-19.045			-3.174
218404.000			-19.045			-3.174
218505.000			-19.044			-3.174
218604.000			-19.044			-3.174
218704.000			-19.044			-3.174
218804.000			-19.044			-3.174
218904.000			-19.044			-3.174
219004.000			-19.044			-3.174
219104.000			-19.043			-3.174
219204.000			-19.043			-3.174
219305.000			-19.043			-3.174
219404.000			-19.043			-3.174
219504.000			-19.043			-3.174
219605.000			-19.043			-3.174
219703.000			-19.041			-3.174
219804.000			-19.041			-3.173
219905.000			-19.041			-3.173
220004.000			-19.042			-3.174
220104.000			-19.042			-3.174
220205.000			-19.041			-3.173
220304.000			-19.040			-3.173
220404.000			-19.040			-3.173
220505.000			-19.039			-3.173
220603.000			-19.039			-3.173
220704.000			-19.040			-3.173
220805.000			-19.040			-3.173
220904.000			-19.039			-3.173
221004.000			-19.039			-3.173
221105.000			-19.038			-3.173
221204.000			-19.037			-3.173
221303.000			-19.037			-3.173
221405.000			-19.036			-3.173
221504.000			-19.037			-3.173
221604.000			-19.036			-3.173
221705.000			-19.036			-3.173
221804.000			-19.036			-3.173
221904.000			-19.036			-3.173
222005.000			-19.036			-3.173
222104.000			-19.035			-3.173
222203.000			-19.035			-3.173
222305.000			-19.035			-3.172
222404.000			-19.034			-3.172
222505.000			-19.034			-3.172
222604.000			-19.035			-3.172
222704.000			-19.033			-3.172
222805.000			-19.033			-3.172
222904.000			-19.034			-3.172
223004.000			-19.033			-3.172
223104.000			-19.032			-3.172
223204.000			-19.033			-3.172
223304.000			-19.032			-3.172
223405.000			-19.031			-3.172
223504.000			-19.032			-3.172
223604.000			-19.032			-3.172
223705.000			-19.032			-3.172
223803.000			-19.031			-3.172
223904.000			-19.031			-3.172
224005.000			-19.030			-3.172
224104.000			-19.030			-3.172
224204.000			-19.031			-3.172
224305.000			-19.030			-3.172
224404.000			-19.029			-3.171
224504.000			-19.029			-3.171
224605.000			-19.029			-3.172
224703.000			-19.029			-3.171
224804.000			-19.028			-3.171
224905.000			-19.029			-3.171
225004.000			-19.029			-3.171
225104.000			-19.028			-3.171
225205.000			-19.027			-3.171
225304.000			-19.027			-3.171
225404.000			-19.027			-3.171
225505.000			-19.027			-3.171
225603.000			-19.027			-3.171
225705.000			-19.027			-3.171
225804.000			-19.026			-3.171
225904.000			-19.026			-3.171
226005.000			-19.026			-3.171
226104.000			-19.026			-3.171
226204.000			-19.025			-3.171
226304.000			-19.024			-3.171
226404.000			-19.023			-3.171
226503.000			-19.023			-3.171
226605.000			-19.023			-3.171
226704.000			-19.024			-3.171
226804.000			-19.024			-3.171
226905.000			-19.023			-3.170
227004.000			-19.022			-3.170
227104.000			-19.023			-3.170
227204.000			-19.024			-3.171
227304.000			-19.023			-3.170
227404.000			-19.022			-3.170
227505.000			-19.021			-3.170
227604.000			-19.021			-3.170
227704.000			-19.021			-3.170
227805.000			-19.021			-3.170
227904.000			-19.021			-3.170
228004.000			-19.020			-3.170
228104.000			-19.019			-3.170
228204.000			-19.019			-3.170
228304.000			-19.019			-3.170
228405.000			-19.019			-3.170
228504.000			-19.019			-3.170
228604.000			-19.018			-3.170
228705.000			-19.018			-3.170
228804.000			-19.018			-3.170
228905.000			-19.019			-3.170
229003.000			-19.019			-3.170
229104.000			-19.016			-3.169
229205.000			-19.017			-3.169
229304.000			-19.016			-3.169
229404.000			-19.015			-3.169
229505.000			-19.015			-3.169
229604.000			-19.016			-3.169
229704.000			-19.016			-3.169
229805.000			-19.016			-3.169
229903.000			-19.016			-3.169
230004.000			-19.016			-3.169
230105.000			-19.016			-3.169
230204.000			-19.015			-3.169
230304.000			-19.014			-3.169
230405.000			-19.013			-3.169
230504.000			-19.014			-3.169
230603.000			-19.014			-3.169
230705.000			-19.014			-3.169
230804.000			-19.014			-3.169
230904.000			-19.014			-3.169
231005.000			-19.013			-3.169
231104.000			-19.013			-3.169
231204.000			-19.013			-3.169
231305.000			-19.011			-3.169
231404.000			-19.011			-3.168
231503.000			-19.011			-3.169
231605.000			-19.012			-3.169
231704.000			-19.012			-3.169
231804.000			-19.011			-3.169
231905.000			-19.010			-3.168
232004.000			-19.010			-3.168
232105.000			-19.010			-3.168
232203.000			-19.009			-3.168
232304.000			-19.008			-3.168
232405.000			-19.008			-3.168
232504.000			-19.008			-3.168
232604.000			-19.008			-3.168
232705.000			-19.008			-3.168
232804.000			-19.008			-3.168
232904.000			-19.008			-3.168
233005.000			-19.008			-3.168
233103.000			-19.006			-3.168
233204.000			-19.007			-3.168
233305.000			-19.008			-3.168
233404.000			-19.008			-3.168
233504.000			-19.007			-3.168
233605.000			-19.006			-3.168
233704.000			-19.006			-3.168
233803.000			-19.006			-3.168
233905.000			-19.006			-3.168
234003.000			-19.006			-3.168
234104.000			-19.005			-3.168
234205.000			-19.004			-3.167
234304.000			-19.004			-3.167
234404.000			-19.004			-3.167
234505.000			-19.003			-3.167
234604.000			-19.002			-3.167
234703.000			-19.002			-3.167
234805.000			-19.004			-3.167
234904.000			-19.003			-3.167
235004.000			-19.002			-3.167
235105.000			-19.002			-3.167
235204.000			-19.002			-3.167
235305.000			-19.003			-3.167
235404.000			-19.003			-3.167
235504.000			-19.002			-3.167
235604.000			-19.001			-3.167
235704.000			-19.000			-3.167
235804.000			-19.000			-3.167
235905.000			-19.000			-3.167
236004.000			-18.999			-3.167
236104.000			-19.000			-3.167
236205.000			-19.000			-3.167
236303.000			-19.000			-3.167
236404.000			-18.998			-3.166
236504.000			-18.998			-3.166
236604.000			-18.999			-3.166
236704.000			-18.998			-3.166
236805.000			-18.999			-3.166
236904.000			-18.998			-3.166
237004.000			-18.997			-3.166
237105.000			-18.997			-3.166
237204.000			-18.997			-3.166
237304.000			-18.997			-3.166
237404.000			-18.997			-3.166
237504.000			-18.996			-3.166
237603.000			-18.996			-3.166
237705.000			-18.996			-3.166
237804.000			-18.996			-3.166
237904.000			-18.995			-3.166
238005.000			-18.995			-3.166
238104.000			-18.995			-3.166
238204.000			-18.995			-3.166
238304.000			-18.995			-3.166
238404.000			-18.995			-3.166
238503.000			-18.994			-3.166
238604.000			-18.994			-3.166
238704.000			-18.994			-3.166
238805.000			-18.993			-3.166
238904.000			-18.992			-3.165
239004.000			-18.993			-3.165
239105.000			-18.993			-3.166
239204.000			-18.993			-3.166
239304.000			-18.992			-3.165
239404.000			-18.992			-3.165
239504.000			-18.992			-3.165
239603.000			-18.991			-3.165
239705.000			-18.991			-3.165
239804.000			-18.990			-3.165
239904.000			-18.990			-3.165
240005.000			-18.991			-3.165
240104.000			-18.990			-3.165
240204.000			-18.989			-3.165
240305.000			-18.989			-3.165
240404.000			-18.989			-3.165
240503.000			-18.989			-3.165
240605.000			-18.989			-3.165
240704.000			-18.989			-3.165
240804.000			-18.987			-3.165
240905.000			-18.988			-3.165
241004.000			-18.988			-3.165
241104.000			-18.987			-3.165
241205.000			-18.987			-3.164
241304.000			-18.987			-3.164
241403.000			-18.986			-3.164
241505.000			-18.987			-3.165
241603.000			-18.987			-3.164
241705.000			-18.987			-3.164
241804.000			-18.986			-3.164
241904.000			-18.985			-3.164
242005.000			-18.985			-3.164
242104.000			-18.984			-3.164
242204.000			-18.984			-3.164
242305.000			-18.984			-3.164
242404.000			-18.984			-3.164
242503.000			-18.984			-3.164
242605.000			-18.983			-3.164
242704.000			-18.982			-3.164
242804.000			-18.982			-3.164
242905.000			-18.983			-3.164
243004.000			-18.982			-3.164
243104.000			-18.983			-3.164
243205.000			-18.982			-3.164
243304.000			-18.982			-3.164
243403.000			-18.981			-3.164
243505.000			-18.981			-3.164
243604.000			-18.981			-3.164
243704.000			-18.980			-3.163
243805.000			-18.979			-3.163
243904.000			-18.979			-3.163
244004.000			-18.980			-3.163
244105.000			-18.980			-3.163
244204.000			-18.979			-3.163
244303.000			-18.979			-3.163
244405.000			-18.978			-3.163
244503.000			-18.979			-3.163
244604.000			-18.980			-3.163
244705.000			-18.979			-3.163
244804.000			-18.978			-3.163
244905.000			-18.979			-3.163
245004.000			-18.978			-3.163
245104.000			-18.978			-3.163
245205.000			-18.978			-3.163
245304.000			-18.977			-3.163
245403.000			-18.977			-3.163
245505.000			-18.977			-3.163
245604.000			-18.976			-3.163
245704.000			-18.976			-3.163
245805.000			-18.975			-3.163
245904.000			-18.975			-3.163
246004.000			-18.975			-3.163
246105.000			-18.975			-3.162
246204.000			-18.975			-3.162
246304.000			-18.975			-3.163
246405.000			-18.975			-3.162
246503.000			-18.974			-3.162
246604.000			-18.975			-3.162
246705.000			-18.974			-3.162
246804.000			-18.974			-3.162
246904.000			-18.974			-3.162
247005.000			-18.973			-3.162
247104.000			-18.972			-3.162
247204.000			-18.972			-3.162
247305.000			-18.971			-3.162
247403.000			-18.972			-3.162
247504.000			-18.972			-3.162
247604.000			-18.970			-3.162
247704.000			-18.970			-3.162
247804.000			-18.971			-3.162
247904.000			-18.971			-3.162
248004.000			-18.970			-3.162
248105.000			-18.971			-3.162
248204.000			-18.970			-3.162
248303.000			-18.969			-3.162
248405.000			-18.969			-3.161
248503.000			-18.968			-3.161
248604.000			-18.968			-3.161
248705.000			-18.968			-3.161
248804.000			-18.967			-3.161
248904.000			-18.968			-3.161
249005.000			-18.968			-3.161
249104.000			-18.968			-3.161
249204.000			-18.968			-3.161
249305.000			-18.967			-3.161
249404.000			-18.967			-3.161
249504.000			-18.966			-3.161
249604.000			-18.966			-3.161
249704.000			-18.966			-3.161
249804.000			-18.967			-3.161
249905.000			-18.967			-3.161
250004.000			-18.966			-3.161
250104.000			-18.966			-3.161
250205.000			-18.965			-3.161
250304.000			-18.965			-3.161
250404.000			-18.964			-3.161
250504.000			-18.964			-3.161
250604.000			-18.965			-3.161
250704.000			-18.964			-3.161
250805.000			-18.964			-3.161
250904.000			-18.964			-3.161
251004.000			-18.963			-3.161
251105.000			-18.964			-3.161
251204.000			-18.964			-3.161
251305.000			-18.962			-3.160
251403.000			-18.962			-3.160
251504.000			-18.962			-3.160
251604.000			-18.962			-3.160
251704.000			-18.962			-3.160
251804.000			-18.961			-3.160
251905.000			-18.960			-3.160
252004.000			-18.961			-3.160
252104.000			-18.961			-3.160
252205.000			-18.961			-3.160
252304.000			-18.960			-3.160
252404.000			-18.961			-3.160
252504.000			-18.960			-3.160
252604.000			-18.960			-3.160
252704.000			-18.959			-3.160
252805.000			-18.959			-3.160
252904.000			-18.959			-3.160
253004.000			-18.960			-3.160
253105.000			-18.960			-3.160
253204.000			-18.958			-3.160
253304.000			-18.958			-3.160
253404.000			-18.957			-3.160
253504.000			-18.957			-3.160
253604.000			-18.958			-3.160
253705.000			-18.957			-3.159
253804.000			-18.956			-3.159
253904.000			-18.956			-3.159
254005.000			-18.956			-3.159
254104.000			-18.956			-3.159
254204.000			-18.955			-3.159
254303.000			-18.955			-3.159
254404.000			-18.955			-3.159
254503.000			-18.955			-3.159
254604.000			-18.955			-3.159
254704.000			-18.955			-3.159
254805.000			-18.955			-3.159
254904.000			-18.955			-3.159
255004.000			-18.954			-3.159
255105.000			-18.954			-3.159
255204.000			-18.953			-3.159
255304.000			-18.955			-3.159
255404.000			-18.954			-3.159
255504.000			-18.952			-3.159
255604.000			-18.952			-3.159
255705.000			-18.953			-3.159
255804.000			-18.954			-3.159
255904.000			-18.953			-3.159
256005.000			-18.953			-3.159
256104.000			-18.952			-3.159
256204.000			-18.953			-3.159
256304.000			-18.952			-3.159
256404.000			-18.950			-3.158
256503.000			-18.950			-3.158
256605.000			-18.950			-3.158
256704.000			-18.951			-3.158
256804.000			-18.950			-3.158
256905.000			-18.950			-3.158
257004.000			-18.949			-3.158
257104.000			-18.948			-3.158
257204.000			-18.948			-3.158
257304.000			-18.949			-3.158
257403.000			-18.949			-3.158
257505.000			-18.949			-3.158
257604.000			-18.949			-3.158
257705.000			-18.948			-3.158
257804.000			-18.948			-3.158
257904.000			-18.947			-3.158
258005.000			-18.947			-3.158
258104.000			-18.948			-3.158
258204.000			-18.947			-3.158
258304.000			-18.946			-3.158
258404.000			-18.946			-3.158
258503.000			-18.946			-3.158
258605.000			-18.946			-3.158
258704.000			-18.946			-3.158
258804.000			-18.946			-3.158
258905.000			-18.945			-3.158
259004.000			-18.944			-3.157
259104.000			-18.944			-3.157
259204.000			-18.944			-3.157
259304.000			-18.943			-3.157
259403.000			-18.943			-3.157
259505.000			-18.944			-3.157
259604.000			-18.944			-3.157
259704.000			-18.944			-3.157
259805.000			-18.943			-3.157
259904.000			-18.943			-3.157
260004.000			-18.944			-3.157
260105.000			-18.944			-3.157
260204.000			-18.942			-3.157
260303.000			-18.941			-3.157
260405.000			-18.943			-3.157
260504.000			-18.942			-3.157
260604.000			-18.941			-3.157
260705.000			-18.940			-3.157
260804.000			-18.941			-3.157
260905.000			-18.941			-3.157
261004.000			-18.940			-3.157
261104.000			-18.940			-3.157
261204.000			-18.939			-3.157
261304.000			-18.939			-3.156
261404.000			-18.939			-3.157
261505.000			-18.939			-3.157
261604.000			-18.939			-3.157
261704.000			-18.939			-3.156
261805.000			-18.939			-3.156
261904.000			-18.939			-3.156
262004.000			-18.939			-3.156
262104.000			-18.938			-3.156
262204.000			-18.938			-3.156
262303.000			-18.938			-3.156
262405.000			-18.938			-3.156
262504.000			-18.937			-3.156
262604.000			-18.937			-3.156
262705.000			-18.936			-3.156
262804.000			-18.937			-3.156
262904.000			-18.937			-3.156
263004.000			-18.937			-3.156
263104.000			-18.936			-3.156
263203.000			-18.935			-3.156
263305.000			-18.934			-3.156
263404.000			-18.935			-3.156
263504.000			-18.935			-3.156
263605.000			-18.935			-3.156
263704.000			-18.935			-3.156
263804.000			-18.934			-3.156
263904.000			-18.934			-3.156
264004.000			-18.933			-3.155
264103.000			-18.934			-3.156
264204.000			-18.933			-3.156
264304.000			-18.933			-3.156
264405.000			-18.932			-3.155
264504.000			-18.932			-3.155
264604.000			-18.933			-3.155
264705.000			-18.932			-3.155
264804.000			-18.931			-3.155
264904.000			-18.930			-3.155
265004.000			-18.931			-3.155
265104.000			-18.932			-3.155
265204.000			-18.931			-3.155
265305.000			-18.931			-3.155
265404.000			-18.931			-3.155
265504.000			-18.931			-3.155
265605.000			-18.930			-3.155
265704.000			-18.930			-3.155
265804.000			-18.930			-3.155
265904.000			-18.929			-3.155
266004.000			-18.929			-3.155
266104.000			-18.928			-3.155
266205.000			-18.929			-3.155
266304.000			-18.928			-3.155
266404.000			-18.928			-3.155
266505.000			-18.928			-3.155
266604.000			-18.928			-3.155
266704.000			-18.927			-3.154
266804.000			-18.927			-3.154
266904.000			-18.927			-3.154
267003.000			-18.927			-3.155
267105.000			-18.927			-3.154
267204.000			-18.926			-3.154
267305.000			-18.926			-3.154
267404.000			-18.927			-3.154
267504.000			-18.927			-3.154
267605.000			-18.927			-3.154
267704.000			-18.925			-3.154
267804.000			-18.925			-3.154
267904.000			-18.925			-3.154
268004.000			-18.925			-3.154
268104.000			-18.924			-3.154
268205.000			-18.924			-3.154
268304.000			-18.924			-3.154
268404.000			-18.924			-3.154
268505.000			-18.923			-3.154
268604.000			-18.923			-3.154
268704.000			-18.922			-3.154
268804.000			-18.921			-3.154
268904.000			-18.921			-3.153
269003.000			-18.921			-3.153
269105.000			-18.921			-3.153
269204.000			-18.920			-3.153
269304.000			-18.921			-3.154
269405.000			-18.920			-3.153
269504.000			-18.920			-3.153
269604.000			-18.921			-3.153
269704.000			-18.920			-3.153
269804.000			-18.919			-3.153
269903.000			-18.919			-3.153
270005.000			-18.919			-3.153
270104.000			-18.919			-3.153
270204.000			-18.919			-3.153
270305.000			-18.919			-3.153
270404.000			-18.918			-3.153
270505.000			-18.918			-3.153
270603.000			-18.918			-3.153
270704.000			-18.918			-3.153
270804.000			-18.918			-3.153
270904.000			-18.919			-3.153
271004.000			-18.918			-3.153
271105.000			-18.917			-3.153
271204.000			-18.917			-3.153
271304.000			-18.917			-3.153
271405.000			-18.915			-3.153
271503.000			-18.915			-3.153
271604.000			-18.916			-3.153
271704.000			-18.916			-3.153
271804.000			-18.916			-3.153
271904.000			-18.916			-3.153
272005.000			-18.915			-3.153
272104.000			-18.915			-3.153
272204.000			-18.914			-3.152
272305.000			-18.915			-3.152
272403.000			-18.915			-3.152
272504.000			-18.915			-3.152
272604.000			-18.915			-3.152
272704.000			-18.914			-3.152
272804.000			-18.914			-3.152
272905.000			-18.913			-3.152
273004.000			-18.914			-3.152
273104.000			-18.915			-3.152
273205.000			-18.913			-3.152
273303.000			-18.913			-3.152
273404.000			-18.912			-3.152
273503.000			-18.912			-3.152
273604.000			-18.912			-3.152
273705.000			-18.912			-3.152
273804.000			-18.911			-3.152
273904.000			-18.911			-3.152
274005.000			-18.912			-3.152
274104.000			-18.913			-3.152
274203.000			-18.912			-3.152
274305.000			-18.911			-3.152
274403.000			-18.910			-3.152
274504.000			-18.910			-3.152
274605.000			-18.910			-3.152
274704.000			-18.910			-3.152
274804.000			-18.910			-3.152
274905.000			-18.910			-3.152
275004.000			-18.909			-3.152
275103.000			-18.909			-3.152
275205.000			-18.908			-3.151
275303.000			-18.909			-3.151
275404.000			-18.909			-3.152
275505.000			-18.909			-3.151
275604.000			-18.907			-3.151
275704.000			-18.907			-3.151
275805.000			-18.907			-3.151
275904.000			-18.906			-3.151
276003.000			-18.906			-3.151
276105.000			-18.906			-3.151
276203.000			-18.907			-3.151
276304.000			-18.907			-3.151
276405.000			-18.907			-3.151
276504.000			-18.905			-3.151
276604.000			-18.906			-3.151
276704.000			-18.906			-3.151
276804.000			-18.905			-3.151
276905.000			-18.905			-3.151
277004.000			-18.905			-3.151
277103.000			-18.904			-3.151
277205.000			-18.903			-3.150
277304.000			-18.904			-3.151
277404.000			-18.903			-3.151
277505.000			-18.903			-3.150
277604.000			-18.903			-3.151
277704.000			-18.903			-3.150
277805.000			-18.903			-3.150
277904.000			-18.903			-3.151
278003.000			-18.903			-3.150
278105.000			-18.902			-3.150
278204.000			-18.903			-3.150
278304.000			-18.902			-3.150
278405.000			-18.901			-3.150
278504.000			-18.902			-3.150
278604.000			-18.902			-3.150
278705.000			-18.900			-3.150
278804.000			-18.901			-3.150
278903.000			-18.901			-3.150
279005.000			-18.900			-3.150
279103.000			-18.900			-3.150
279204.000			-18.900			-3.150
279305.000			-18.899			-3.150
279404.000			-18.900			-3.150
279504.000			-18.900			-3.150
279605.000			-18.899			-3.150
279704.000			-18.900			-3.150
279804.000			-18.899			-3.150
279905.000			-18.898			-3.150
280003.000			-18.898			-3.150
280105.000			-18.896			-3.149
280204.000			-18.897			-3.149
280304.000			-18.897			-3.149
280405.000			-18.897			-3.149
280504.000			-18.897			-3.150
280604.000			-18.897			-3.149
280705.000			-18.897			-3.150
280804.000			-18.897			-3.149
280904.000			-18.896			-3.149
281005.000			-18.896			-3.149
281103.000			-18.896			-3.149
281204.000			-18.896			-3.149
281305.000			-18.895			-3.149
281404.000			-18.894			-3.149
281504.000			-18.895			-3.149
281605.000			-18.894			-3.149
281704.000			-18.894			-3.149
281804.000			-18.894			-3.149
281905.000			-18.893			-3.149
282003.000			-18.894			-3.149
282104.000			-18.894			-3.149
282204.000			-18.893			-3.149
282304.000			-18.893			-3.149
282404.000			-18.892			-3.149
282505.000			-18.892			-3.149
282604.000			-18.892			-3.149
282704.000			-18.891			-3.149
282805.000			-18.892			-3.149
282903.000			-18.893			-3.149
283004.000			-18.891			-3.148
283103.000			-18.891			-3.148
283204.000			-18.891			-3.149
283305.000			-18.890			-3.148
283404.000			-18.890			-3.148
283504.000			-18.890			-3.148
283605.000			-18.890			-3.148
283704.000			-18.890			-3.148
283804.000			-18.890			-3.148
283905.000			-18.889			-3.148
284003.000			-18.890			-3.148
284104.000			-18.890			-3.148
284205.000			-18.889			-3.148
284304.000			-18.889			-3.148
284404.000			-18.889			-3.148
284505.000			-18.889			-3.148
284604.000			-18.888			-3.148
284704.000			-18.887			-3.148
284805.000			-18.887			-3.148
284904.000			-18.887			-3.148
285004.000			-18.887			-3.148
285104.000			-18.886			-3.148
285204.000			-18.887			-3.148
285304.000			-18.887			-3.148
285405.000			-18.887			-3.148
285504.000			-18.887			-3.148
285604.000			-18.887			-3.148
285705.000			-18.887			-3.148
285804.000			-18.886			-3.148
285904.000			-18.886			-3.148
286004.000			-18.885			-3.148
286104.000			-18.885			-3.147
286203.000			-18.885			-3.148
286305.000			-18.886			-3.148
286404.000			-18.886			-3.148
286505.000			-18.885			-3.147
286604.000			-18.884			-3.147
286704.000			-18.883			-3.147
286805.000			-18.884			-3.147
286904.000			-18.885			-3.147
287004.000			-18.885			-3.147
287104.000			-18.884			-3.147
287204.000			-18.883			-3.147
287303.000			-18.883			-3.147
287405.000			-18.882			-3.147
287504.000			-18.882			-3.147
287604.000			-18.882			-3.147
287705.000			-18.882			-3.147
287804.000			-18.881			-3.147
287904.000			-18.882			-3.147
288004.000			-18.882			-3.147
288104.000			-18.881			-3.147
288203.000			-18.882			-3.147
288305.000			-18.881			-3.147
288404.000			-18.881			-3.147
288504.000			-18.881			-3.147
288605.000			-18.881			-3.147
288704.000			-18.881			-3.147
288804.000			-18.882			-3.147
288905.000			-18.880			-3.147
289004.000			-18.880			-3.147
289103.000			-18.880			-3.147
289205.000			-18.879			-3.146
289304.000			-18.879			-3.147
289404.000			-18.880			-3.147
289505.000			-18.879			-3.147
289604.000			-18.878			-3.146
289705.000			-18.878			-3.146
289804.000			-18.878			-3.146
289904.000			-18.878			-3.146
290005.000			-18.877			-3.146
290104.000			-18.877			-3.146
290203.000			-18.878			-3.146
290305.000			-18.877			-3.146
290404.000			-18.877			-3.146
290504.000			-18.876			-3.146
290605.000			-18.876			-3.146
290704.000			-18.876			-3.146
290804.000			-18.875			-3.146
290905.000			-18.875			-3.146
291004.000			-18.874			-3.146
291103.000			-18.875			-3.146
291205.000			-18.875			-3.146
291303.000			-18.875			-3.146
291404.000			-18.875			-3.146
291505.000			-18.874			-3.146
291604.000			-18.874			-3.146
291704.000			-18.873			-3.146
291805.000			-18.874			-3.146
291904.000			-18.874			-3.146
292004.000			-18.873			-3.146
292105.000			-18.873			-3.146
292203.000			-18.873			-3.145
292304.000			-18.872			-3.145
292405.000			-18.872			-3.145
292504.000			-18.872			-3.145
292604.000			-18.872			-3.145
292704.000			-18.871			-3.145
292804.000			-18.871			-3.145
292905.000			-18.872			-3.145
293004.000			-18.872			-3.145
293103.000			-18.871			-3.145
293205.000			-18.871			-3.145
293304.000			-18.871			-3.145
293404.000			-18.871			-3.145
293505.000			-18.870			-3.145
293604.000			-18.870			-3.145
293704.000			-18.869			-3.145
293805.000			-18.870			-3.145
293904.000			-18.870			-3.145
294004.000			-18.870			-3.145
294105.000			-18.870			-3.145
294203.000			-18.870			-3.145
294304.000			-18.869			-3.145
294405.000			-18.868			-3.145
294504.000			-18.868			-3.145
294604.000			-18.867			-3.145
294705.000			-18.868			-3.145
294804.000			-18.868			-3.145
294904.000			-18.867			-3.145
295005.000			-18.867			-3.145
295103.000			-18.868			-3.145
295204.000			-18.867			-3.145
295304.000			-18.866			-3.144
295404.000			-18.867			-3.144
295504.000			-18.867			-3.144
295605.000			-18.867			-3.144
295704.000			-18.867			-3.145
295804.000			-18.866			-3.144
295905.000			-18.866			-3.144
296004.000			-18.865			-3.144
296105.000			-18.866			-3.144
296203.000			-18.865			-3.144
296304.000			-18.865			-3.144
296404.000			-18.866			-3.144
296504.000			-18.865			-3.144
296604.000			-18.865			-3.144
296705.000			-18.865			-3.144
296804.000			-18.864			-3.144
296904.000			-18.863			-3.144
297005.000			-18.863			-3.144
297104.000			-18.863			-3.144
297204.000			-18.864			-3.144
297304.000			-18.863			-3.144
297404.000			-18.863			-3.144
297504.000			-18.863			-3.144
297605.000			-18.863			-3.144
297704.000			-18.862			-3.144
297804.000			-18.863			-3.144
297905.000			-18.863			-3.144
298004.000			-18.862			-3.144
298104.000			-18.861			-3.144
298204.000			-18.862			-3.144
298304.000			-18.861			-3.144
298403.000			-18.860			-3.143
298505.000			-18.860			-3.143
298604.000			-18.860			-3.143
298704.000			-18.861			-3.143
298805.000			-18.861			-3.143
298904.000			-18.860			-3.143
299004.000			-18.860			-3.143
299104.000			-18.859			-3.143
299204.000			-18.859			-3.143
299303.000			-18.859			-3.143
299404.000			-18.859			-3.143
299503.000			-18.860			-3.143
299605.000			-18.859			-3.143
299704.000			-18.859			-3.143
299804.000			-18.859			-3.143
299905.000			-18.857			-3.143
