# Acquired on 11/01/2024 15:29:42 
# SPIDER: Creep_-5mm_07714532C-2
# CREEP MEASUREMENT

# time [ms]		force [N]		stiffness [N/mm]
0.000			7.419			-1.484
101.000			8.648			-1.730
201.000			8.771			-1.754
301.000			8.754			-1.751
401.000			8.725			-1.745
500.000			8.703			-1.741
600.000			8.685			-1.737
701.000			8.668			-1.734
800.000			8.641			-1.728
901.000			8.630			-1.726
1002.000			8.620			-1.724
1100.000			8.610			-1.722
1200.000			8.601			-1.720
1301.000			8.592			-1.718
1400.000			8.584			-1.717
1500.000			8.576			-1.715
1602.000			8.563			-1.713
1701.000			8.557			-1.711
1800.000			8.550			-1.710
1901.000			8.544			-1.709
2000.000			8.538			-1.708
2101.000			8.533			-1.707
2200.000			8.528			-1.706
2300.000			8.517			-1.703
2402.000			8.513			-1.703
2501.000			8.509			-1.702
2600.000			8.504			-1.701
2701.000			8.501			-1.700
2800.000			8.497			-1.699
2900.000			8.493			-1.699
3001.000			8.485			-1.697
3101.000			8.482			-1.696
3201.000			8.476			-1.695
3301.000			8.474			-1.695
3400.000			8.471			-1.694
3500.000			8.467			-1.693
3601.000			8.465			-1.693
3700.000			8.462			-1.692
3800.000			8.455			-1.691
3902.000			8.452			-1.690
4001.000			8.449			-1.690
4100.000			8.446			-1.689
4201.000			8.444			-1.689
4300.000			8.442			-1.688
4400.000			8.439			-1.688
4501.000			8.434			-1.687
4600.000			8.432			-1.686
4701.000			8.429			-1.686
4802.000			8.427			-1.685
4900.000			8.424			-1.685
5000.000			8.422			-1.684
5101.000			8.420			-1.684
5200.000			8.416			-1.683
5301.000			8.413			-1.683
5401.000			8.410			-1.682
5501.000			8.409			-1.682
5601.000			8.406			-1.681
5700.000			8.404			-1.681
5800.000			8.402			-1.680
5901.000			8.398			-1.680
6000.000			8.396			-1.679
6100.000			8.394			-1.679
6202.000			8.393			-1.679
6301.000			8.391			-1.678
6400.000			8.389			-1.678
6501.000			8.387			-1.677
6600.000			8.386			-1.677
6700.000			8.382			-1.676
6801.000			8.381			-1.676
6900.000			8.379			-1.676
7001.000			8.377			-1.675
7102.000			8.376			-1.675
7200.000			8.373			-1.675
7300.000			8.372			-1.674
7401.000			8.369			-1.674
7500.000			8.367			-1.673
7600.000			8.365			-1.673
7701.000			8.364			-1.673
7801.000			8.364			-1.673
7901.000			8.362			-1.672
8001.000			8.361			-1.672
8100.000			8.356			-1.671
8200.000			8.357			-1.671
8301.000			8.355			-1.671
8400.000			8.352			-1.670
8502.000			8.350			-1.670
8601.000			8.349			-1.670
8701.000			8.348			-1.670
8801.000			8.345			-1.669
8900.000			8.345			-1.669
9000.000			8.343			-1.669
9101.000			8.342			-1.668
9200.000			8.341			-1.668
9301.000			8.340			-1.668
9402.000			8.338			-1.668
9500.000			8.336			-1.667
9600.000			8.334			-1.667
9701.000			8.333			-1.667
9800.000			8.332			-1.666
9900.000			8.331			-1.666
10001.000			8.329			-1.666
10101.000			8.328			-1.666
10201.000			8.327			-1.665
10301.000			8.324			-1.665
10400.000			8.323			-1.665
10500.000			8.321			-1.664
10601.000			8.321			-1.664
10700.000			8.320			-1.664
10800.000			8.319			-1.664
10902.000			8.317			-1.663
11001.000			8.316			-1.663
11100.000			8.315			-1.663
11201.000			8.314			-1.663
11300.000			8.313			-1.663
11400.000			8.313			-1.663
11501.000			8.311			-1.662
11601.000			8.309			-1.662
11702.000			8.308			-1.662
11801.000			8.306			-1.661
11900.000			8.305			-1.661
12001.000			8.305			-1.661
12100.000			8.303			-1.661
12200.000			8.302			-1.660
12301.000			8.300			-1.660
12401.000			8.299			-1.660
12501.000			8.296			-1.659
12601.000			8.295			-1.659
12700.000			8.295			-1.659
12800.000			8.295			-1.659
12901.000			8.294			-1.659
13000.000			8.292			-1.658
13100.000			8.291			-1.658
13202.000			8.289			-1.658
13301.000			8.287			-1.657
13401.000			8.286			-1.657
13501.000			8.286			-1.657
13600.000			8.285			-1.657
13700.000			8.284			-1.657
13801.000			8.282			-1.656
13900.000			8.281			-1.656
14000.000			8.281			-1.656
14102.000			8.279			-1.656
14201.000			8.278			-1.656
14300.000			8.277			-1.655
14401.000			8.277			-1.655
14500.000			8.276			-1.655
14600.000			8.276			-1.655
14701.000			8.274			-1.655
14800.000			8.273			-1.655
14902.000			8.272			-1.654
15001.000			8.271			-1.654
15100.000			8.270			-1.654
15201.000			8.271			-1.654
15300.000			8.270			-1.654
15400.000			8.266			-1.653
15501.000			8.266			-1.653
15600.000			8.267			-1.653
15701.000			8.266			-1.653
15802.000			8.264			-1.653
15900.000			8.263			-1.653
16000.000			8.261			-1.652
16101.000			8.261			-1.652
16200.000			8.260			-1.652
16300.000			8.259			-1.652
16401.000			8.259			-1.652
16501.000			8.258			-1.652
16601.000			8.258			-1.652
16701.000			8.257			-1.651
16800.000			8.255			-1.651
16900.000			8.254			-1.651
17001.000			8.253			-1.651
17100.000			8.253			-1.651
17200.000			8.252			-1.650
17302.000			8.251			-1.650
17401.000			8.251			-1.650
17500.000			8.250			-1.650
17601.000			8.249			-1.650
17700.000			8.249			-1.650
17800.000			8.249			-1.650
17901.000			8.247			-1.649
18000.000			8.246			-1.649
18102.000			8.245			-1.649
18201.000			8.245			-1.649
18300.000			8.244			-1.649
18401.000			8.242			-1.648
18500.000			8.241			-1.648
18600.000			8.241			-1.648
18701.000			8.240			-1.648
18800.000			8.238			-1.648
18901.000			8.238			-1.648
19002.000			8.238			-1.648
19100.000			8.236			-1.647
19200.000			8.237			-1.647
19301.000			8.236			-1.647
19400.000			8.235			-1.647
19500.000			8.235			-1.647
19601.000			8.235			-1.647
19701.000			8.234			-1.647
19801.000			8.232			-1.646
19901.000			8.231			-1.646
20000.000			8.232			-1.646
20100.000			8.233			-1.647
20201.000			8.231			-1.646
20300.000			8.230			-1.646
20400.000			8.230			-1.646
20502.000			8.228			-1.646
20601.000			8.229			-1.646
20700.000			8.228			-1.646
20801.000			8.226			-1.645
20900.000			8.225			-1.645
21000.000			8.226			-1.645
21101.000			8.225			-1.645
21201.000			8.223			-1.645
21302.000			8.224			-1.645
21401.000			8.223			-1.645
21500.000			8.222			-1.644
21601.000			8.221			-1.644
21700.000			8.221			-1.644
21800.000			8.221			-1.644
21901.000			8.219			-1.644
22001.000			8.218			-1.644
22101.000			8.218			-1.644
22201.000			8.218			-1.644
22300.000			8.217			-1.643
22400.000			8.216			-1.643
22501.000			8.216			-1.643
22600.000			8.215			-1.643
22700.000			8.214			-1.643
22802.000			8.214			-1.643
22901.000			8.212			-1.642
23000.000			8.212			-1.642
23101.000			8.212			-1.642
23200.000			8.212			-1.642
23300.000			8.211			-1.642
23401.000			8.210			-1.642
23500.000			8.210			-1.642
23601.000			8.209			-1.642
23702.000			8.209			-1.642
23800.000			8.208			-1.642
23900.000			8.207			-1.641
24001.000			8.207			-1.641
24100.000			8.204			-1.641
24200.000			8.205			-1.641
24301.000			8.204			-1.641
24401.000			8.204			-1.641
24502.000			8.203			-1.641
24600.000			8.202			-1.640
24700.000			8.201			-1.640
24801.000			8.201			-1.640
24900.000			8.201			-1.640
25000.000			8.201			-1.640
25101.000			8.200			-1.640
25201.000			8.200			-1.640
25301.000			8.198			-1.640
25401.000			8.198			-1.640
25500.000			8.198			-1.640
25600.000			8.197			-1.639
25701.000			8.196			-1.639
25800.000			8.196			-1.639
25900.000			8.196			-1.639
26002.000			8.195			-1.639
26101.000			8.194			-1.639
26200.000			8.194			-1.639
26301.000			8.194			-1.639
26400.000			8.192			-1.638
26500.000			8.192			-1.638
26601.000			8.191			-1.638
26700.000			8.191			-1.638
26801.000			8.191			-1.638
26902.000			8.191			-1.638
27000.000			8.190			-1.638
27100.000			8.189			-1.638
27201.000			8.188			-1.638
27300.000			8.188			-1.638
27400.000			8.187			-1.637
27501.000			8.188			-1.638
27601.000			8.187			-1.637
27702.000			8.186			-1.637
27800.000			8.185			-1.637
27900.000			8.185			-1.637
28001.000			8.184			-1.637
28100.000			8.183			-1.637
28200.000			8.183			-1.637
28301.000			8.182			-1.636
28401.000			8.183			-1.637
28501.000			8.182			-1.636
28601.000			8.181			-1.636
28700.000			8.180			-1.636
28800.000			8.180			-1.636
28901.000			8.180			-1.636
29000.000			8.180			-1.636
29100.000			8.179			-1.636
29202.000			8.180			-1.636
29301.000			8.179			-1.636
29400.000			8.179			-1.636
29501.000			8.178			-1.636
29600.000			8.178			-1.636
29700.000			8.177			-1.635
29801.000			8.176			-1.635
29900.000			8.176			-1.635
30000.000			8.176			-1.635
30102.000			8.175			-1.635
30201.000			8.175			-1.635
30300.000			8.175			-1.635
30401.000			8.174			-1.635
30500.000			8.174			-1.635
30600.000			8.174			-1.635
30701.000			8.174			-1.635
30801.000			8.173			-1.635
30902.000			8.172			-1.634
31001.000			8.172			-1.634
31100.000			8.171			-1.634
31201.000			8.171			-1.634
31300.000			8.171			-1.634
31400.000			8.170			-1.634
31501.000			8.169			-1.634
31601.000			8.169			-1.634
31701.000			8.168			-1.634
31801.000			8.167			-1.633
31900.000			8.168			-1.634
32000.000			8.167			-1.633
32101.000			8.166			-1.633
32200.000			8.166			-1.633
32300.000			8.165			-1.633
32402.000			8.166			-1.633
32501.000			8.166			-1.633
32601.000			8.165			-1.633
32701.000			8.165			-1.633
32800.000			8.164			-1.633
32900.000			8.164			-1.633
33001.000			8.164			-1.633
33100.000			8.163			-1.633
33201.000			8.163			-1.633
33302.000			8.163			-1.633
33401.000			8.163			-1.633
33500.000			8.161			-1.632
33601.000			8.163			-1.633
33700.000			8.162			-1.632
33800.000			8.161			-1.632
33901.000			8.160			-1.632
34001.000			8.160			-1.632
34102.000			8.160			-1.632
34201.000			8.159			-1.632
34300.000			8.158			-1.632
34401.000			8.158			-1.632
34500.000			8.158			-1.632
34600.000			8.158			-1.632
34701.000			8.157			-1.631
34801.000			8.156			-1.631
34901.000			8.156			-1.631
35002.000			8.155			-1.631
35100.000			8.155			-1.631
35200.000			8.155			-1.631
35301.000			8.154			-1.631
35400.000			8.153			-1.631
35500.000			8.153			-1.631
35602.000			8.153			-1.631
35701.000			8.153			-1.631
35800.000			8.153			-1.631
35901.000			8.152			-1.630
36000.000			8.152			-1.630
36100.000			8.151			-1.630
36201.000			8.150			-1.630
36300.000			8.151			-1.630
36401.000			8.151			-1.630
36502.000			8.150			-1.630
36600.000			8.148			-1.630
36700.000			8.148			-1.630
36801.000			8.148			-1.630
36900.000			8.148			-1.630
37000.000			8.148			-1.630
37101.000			8.148			-1.630
37201.000			8.146			-1.629
37302.000			8.146			-1.629
37400.000			8.145			-1.629
37500.000			8.145			-1.629
37601.000			8.146			-1.629
37700.000			8.146			-1.629
37800.000			8.146			-1.629
37901.000			8.145			-1.629
38001.000			8.143			-1.629
38101.000			8.143			-1.629
38201.000			8.144			-1.629
38300.000			8.144			-1.629
38400.000			8.144			-1.629
38501.000			8.143			-1.629
38600.000			8.143			-1.629
38700.000			8.143			-1.629
38802.000			8.143			-1.629
38901.000			8.143			-1.629
39000.000			8.142			-1.628
39101.000			8.141			-1.628
39200.000			8.140			-1.628
39300.000			8.139			-1.628
39401.000			8.139			-1.628
39500.000			8.140			-1.628
39601.000			8.140			-1.628
39702.000			8.140			-1.628
39801.000			8.138			-1.628
39900.000			8.139			-1.628
40001.000			8.138			-1.628
40100.000			8.137			-1.627
40200.000			8.137			-1.627
40301.000			8.137			-1.627
40401.000			8.137			-1.627
40502.000			8.136			-1.627
40601.000			8.136			-1.627
40700.000			8.136			-1.627
40801.000			8.135			-1.627
40900.000			8.135			-1.627
41000.000			8.134			-1.627
41101.000			8.134			-1.627
41201.000			8.134			-1.627
41301.000			8.134			-1.627
41401.000			8.134			-1.627
41500.000			8.133			-1.627
41600.000			8.133			-1.627
41701.000			8.133			-1.627
41800.000			8.133			-1.627
41900.000			8.133			-1.627
42002.000			8.132			-1.626
42101.000			8.131			-1.626
42200.000			8.130			-1.626
42301.000			8.131			-1.626
42400.000			8.130			-1.626
42500.000			8.130			-1.626
42601.000			8.130			-1.626
42701.000			8.129			-1.626
42801.000			8.129			-1.626
42902.000			8.129			-1.626
43000.000			8.129			-1.626
43100.000			8.128			-1.626
43201.000			8.127			-1.625
43300.000			8.128			-1.626
43400.000			8.127			-1.625
43501.000			8.126			-1.625
43601.000			8.125			-1.625
43702.000			8.125			-1.625
43800.000			8.125			-1.625
43900.000			8.124			-1.625
44001.000			8.124			-1.625
44100.000			8.124			-1.625
44200.000			8.123			-1.625
44302.000			8.123			-1.625
44401.000			8.123			-1.625
44500.000			8.123			-1.625
44601.000			8.123			-1.625
44700.000			8.122			-1.624
44800.000			8.122			-1.624
44901.000			8.121			-1.624
45000.000			8.122			-1.624
45101.000			8.122			-1.624
45202.000			8.120			-1.624
45300.000			8.120			-1.624
45400.000			8.120			-1.624
45501.000			8.119			-1.624
45600.000			8.119			-1.624
45700.000			8.119			-1.624
45801.000			8.119			-1.624
45901.000			8.120			-1.624
46001.000			8.118			-1.624
46101.000			8.117			-1.623
46200.000			8.118			-1.624
46300.000			8.118			-1.624
46401.000			8.116			-1.623
46500.000			8.116			-1.623
46600.000			8.116			-1.623
46702.000			8.116			-1.623
46801.000			8.115			-1.623
46901.000			8.115			-1.623
47000.000			8.115			-1.623
47100.000			8.115			-1.623
47201.000			8.114			-1.623
47300.000			8.114			-1.623
47400.000			8.113			-1.623
47502.000			8.113			-1.623
47601.000			8.113			-1.623
47700.000			8.113			-1.623
47801.000			8.112			-1.622
47900.000			8.112			-1.622
48000.000			8.113			-1.623
48101.000			8.113			-1.623
48200.000			8.110			-1.622
48301.000			8.110			-1.622
48402.000			8.109			-1.622
48500.000			8.109			-1.622
48600.000			8.110			-1.622
48701.000			8.110			-1.622
48800.000			8.110			-1.622
48900.000			8.109			-1.622
49001.000			8.108			-1.622
49101.000			8.108			-1.622
49201.000			8.109			-1.622
49301.000			8.108			-1.622
49400.000			8.107			-1.621
49500.000			8.107			-1.621
49601.000			8.107			-1.621
49700.000			8.107			-1.621
49800.000			8.107			-1.621
49902.000			8.106			-1.621
50001.000			8.106			-1.621
50101.000			8.106			-1.621
50200.000			8.105			-1.621
50300.000			8.104			-1.621
50401.000			8.104			-1.621
50500.000			8.104			-1.621
50600.000			8.104			-1.621
50702.000			8.103			-1.621
50801.000			8.103			-1.621
50900.000			8.103			-1.621
51001.000			8.103			-1.621
51100.000			8.102			-1.620
51200.000			8.101			-1.620
51301.000			8.102			-1.620
51400.000			8.102			-1.620
51501.000			8.101			-1.620
51602.000			8.100			-1.620
51700.000			8.100			-1.620
51800.000			8.099			-1.620
51901.000			8.100			-1.620
52000.000			8.099			-1.620
52100.000			8.098			-1.620
52201.000			8.098			-1.620
52301.000			8.098			-1.620
52401.000			8.098			-1.620
52501.000			8.098			-1.620
52600.000			8.097			-1.619
52700.000			8.097			-1.619
52801.000			8.098			-1.620
52900.000			8.097			-1.619
53000.000			8.096			-1.619
53102.000			8.096			-1.619
53201.000			8.096			-1.619
53301.000			8.094			-1.619
53400.000			8.094			-1.619
53500.000			8.095			-1.619
53601.000			8.095			-1.619
53700.000			8.094			-1.619
53800.000			8.094			-1.619
53902.000			8.093			-1.619
54001.000			8.093			-1.619
54100.000			8.093			-1.619
54201.000			8.092			-1.618
54300.000			8.092			-1.618
54400.000			8.092			-1.618
54501.000			8.092			-1.618
54600.000			8.092			-1.618
54701.000			8.091			-1.618
54802.000			8.091			-1.618
54900.000			8.090			-1.618
55000.000			8.091			-1.618
55101.000			8.091			-1.618
55200.000			8.090			-1.618
55300.000			8.089			-1.618
55401.000			8.088			-1.618
55501.000			8.089			-1.618
55601.000			8.088			-1.618
55701.000			8.088			-1.618
55800.000			8.088			-1.618
55900.000			8.088			-1.618
56001.000			8.088			-1.618
56100.000			8.088			-1.618
56200.000			8.088			-1.618
56302.000			8.088			-1.618
56401.000			8.087			-1.617
56502.000			8.086			-1.617
56600.000			8.086			-1.617
56700.000			8.086			-1.617
56801.000			8.086			-1.617
56900.000			8.087			-1.617
57000.000			8.086			-1.617
57101.000			8.086			-1.617
57201.000			8.086			-1.617
57301.000			8.085			-1.617
57401.000			8.085			-1.617
57500.000			8.085			-1.617
57600.000			8.084			-1.617
57701.000			8.084			-1.617
57800.000			8.084			-1.617
57900.000			8.084			-1.617
58002.000			8.083			-1.617
58101.000			8.083			-1.617
58200.000			8.083			-1.617
58301.000			8.084			-1.617
58400.000			8.082			-1.616
58500.000			8.082			-1.616
58601.000			8.081			-1.616
58700.000			8.082			-1.616
58801.000			8.081			-1.616
58902.000			8.081			-1.616
59000.000			8.082			-1.616
59100.000			8.081			-1.616
59201.000			8.080			-1.616
59300.000			8.081			-1.616
59400.000			8.080			-1.616
59501.000			8.079			-1.616
59601.000			8.080			-1.616
59702.000			8.081			-1.616
59800.000			8.079			-1.616
59900.000			8.078			-1.616
60001.000			8.079			-1.616
60100.000			8.078			-1.616
60200.000			8.078			-1.616
60301.000			8.078			-1.616
60401.000			8.079			-1.616
60501.000			8.079			-1.616
60601.000			8.078			-1.616
60700.000			8.078			-1.616
60800.000			8.077			-1.615
60901.000			8.077			-1.615
61000.000			8.076			-1.615
61100.000			8.076			-1.615
61202.000			8.075			-1.615
61301.000			8.074			-1.615
61400.000			8.074			-1.615
61501.000			8.075			-1.615
61600.000			8.075			-1.615
61700.000			8.075			-1.615
61801.000			8.075			-1.615
61900.000			8.074			-1.615
62001.000			8.073			-1.615
62102.000			8.073			-1.615
62200.000			8.071			-1.614
62300.000			8.073			-1.615
62401.000			8.074			-1.615
62500.000			8.073			-1.615
62600.000			8.072			-1.614
62701.000			8.072			-1.614
62801.000			8.072			-1.614
62902.000			8.072			-1.614
63000.000			8.072			-1.614
63100.000			8.071			-1.614
63201.000			8.070			-1.614
63300.000			8.070			-1.614
63400.000			8.069			-1.614
63501.000			8.070			-1.614
63601.000			8.069			-1.614
63701.000			8.069			-1.614
63801.000			8.069			-1.614
63900.000			8.071			-1.614
64000.000			8.070			-1.614
64101.000			8.068			-1.614
64200.000			8.068			-1.614
64300.000			8.069			-1.614
64402.000			8.069			-1.614
64501.000			8.068			-1.614
64600.000			8.068			-1.614
64701.000			8.067			-1.613
64800.000			8.066			-1.613
64900.000			8.067			-1.613
65001.000			8.067			-1.613
65100.000			8.066			-1.613
65201.000			8.066			-1.613
65302.000			8.067			-1.613
65400.000			8.066			-1.613
65500.000			8.066			-1.613
65601.000			8.066			-1.613
65700.000			8.065			-1.613
65800.000			8.065			-1.613
65901.000			8.064			-1.613
66000.000			8.064			-1.613
66102.000			8.064			-1.613
66201.000			8.064			-1.613
66300.000			8.064			-1.613
66401.000			8.064			-1.613
66500.000			8.063			-1.613
66600.000			8.063			-1.613
66701.000			8.063			-1.613
66800.000			8.062			-1.612
66901.000			8.063			-1.613
67002.000			8.064			-1.613
67100.000			8.061			-1.612
67200.000			8.061			-1.612
67301.000			8.062			-1.612
67400.000			8.062			-1.612
67500.000			8.062			-1.612
67601.000			8.062			-1.612
67701.000			8.062			-1.612
67801.000			8.061			-1.612
67901.000			8.059			-1.612
68000.000			8.059			-1.612
68100.000			8.059			-1.612
68201.000			8.060			-1.612
68300.000			8.060			-1.612
68400.000			8.060			-1.612
68502.000			8.059			-1.612
68601.000			8.060			-1.612
68701.000			8.059			-1.612
68801.000			8.058			-1.612
68900.000			8.058			-1.612
69000.000			8.058			-1.612
69101.000			8.059			-1.612
69200.000			8.059			-1.612
69301.000			8.059			-1.612
69401.000			8.057			-1.611
69501.000			8.057			-1.611
69601.000			8.056			-1.611
69700.000			8.057			-1.611
69800.000			8.056			-1.611
69901.000			8.056			-1.611
70000.000			8.057			-1.611
70100.000			8.056			-1.611
70202.000			8.055			-1.611
70301.000			8.055			-1.611
70400.000			8.055			-1.611
70501.000			8.055			-1.611
70600.000			8.055			-1.611
70700.000			8.055			-1.611
70801.000			8.055			-1.611
70900.000			8.055			-1.611
71001.000			8.055			-1.611
71102.000			8.054			-1.611
71200.000			8.053			-1.611
71300.000			8.053			-1.611
71401.000			8.054			-1.611
71500.000			8.054			-1.611
71600.000			8.054			-1.611
71701.000			8.053			-1.611
71801.000			8.053			-1.611
71901.000			8.053			-1.611
72001.000			8.053			-1.611
72100.000			8.053			-1.611
72200.000			8.052			-1.610
72301.000			8.052			-1.610
72400.000			8.053			-1.611
72501.000			8.053			-1.611
72601.000			8.052			-1.610
72701.000			8.052			-1.610
72801.000			8.051			-1.610
72900.000			8.050			-1.610
73000.000			8.050			-1.610
73101.000			8.050			-1.610
73200.000			8.051			-1.610
73300.000			8.051			-1.610
73402.000			8.051			-1.610
73501.000			8.051			-1.610
73600.000			8.051			-1.610
73701.000			8.050			-1.610
73800.000			8.049			-1.610
73900.000			8.049			-1.610
74001.000			8.049			-1.610
74100.000			8.049			-1.610
74201.000			8.048			-1.610
74302.000			8.049			-1.610
74400.000			8.048			-1.610
74500.000			8.047			-1.609
74601.000			8.047			-1.609
74700.000			8.047			-1.609
74800.000			8.047			-1.609
74901.000			8.047			-1.609
75001.000			8.047			-1.609
75101.000			8.047			-1.609
75201.000			8.047			-1.609
75300.000			8.045			-1.609
75400.000			8.045			-1.609
75501.000			8.046			-1.609
75600.000			8.045			-1.609
75701.000			8.045			-1.609
75801.000			8.046			-1.609
75901.000			8.045			-1.609
76002.000			8.046			-1.609
76100.000			8.045			-1.609
76200.000			8.045			-1.609
76301.000			8.045			-1.609
76400.000			8.044			-1.609
76500.000			8.044			-1.609
76601.000			8.044			-1.609
76701.000			8.044			-1.609
76801.000			8.044			-1.609
76901.000			8.044			-1.609
77000.000			8.043			-1.609
77100.000			8.042			-1.608
77201.000			8.043			-1.609
77300.000			8.042			-1.608
77400.000			8.042			-1.608
77502.000			8.042			-1.608
77601.000			8.042			-1.608
77700.000			8.042			-1.608
77801.000			8.042			-1.608
77900.000			8.042			-1.608
78000.000			8.041			-1.608
78101.000			8.042			-1.608
78200.000			8.041			-1.608
78301.000			8.040			-1.608
78402.000			8.040			-1.608
78500.000			8.041			-1.608
78600.000			8.040			-1.608
78701.000			8.039			-1.608
78800.000			8.040			-1.608
78901.000			8.039			-1.608
79000.000			8.039			-1.608
79101.000			8.039			-1.608
79202.000			8.038			-1.608
79301.000			8.039			-1.608
79400.000			8.040			-1.608
79501.000			8.036			-1.607
79600.000			8.037			-1.607
79700.000			8.038			-1.608
79801.000			8.038			-1.608
79900.000			8.038			-1.608
80001.000			8.038			-1.608
80102.000			8.037			-1.607
80200.000			8.038			-1.608
80300.000			8.037			-1.607
80401.000			8.036			-1.607
80500.000			8.036			-1.607
80600.000			8.036			-1.607
80701.000			8.036			-1.607
80801.000			8.035			-1.607
80901.000			8.036			-1.607
81001.000			8.036			-1.607
81100.000			8.035			-1.607
81200.000			8.035			-1.607
81301.000			8.035			-1.607
81400.000			8.035			-1.607
81500.000			8.036			-1.607
81602.000			8.036			-1.607
81701.000			8.035			-1.607
81800.000			8.035			-1.607
81901.000			8.034			-1.607
82000.000			8.034			-1.607
82101.000			8.034			-1.607
82200.000			8.033			-1.607
82300.000			8.033			-1.607
82402.000			8.033			-1.607
82501.000			8.033			-1.607
82600.000			8.033			-1.607
82701.000			8.033			-1.607
82800.000			8.033			-1.607
82900.000			8.033			-1.607
83001.000			8.033			-1.607
83100.000			8.032			-1.606
83201.000			8.031			-1.606
83302.000			8.031			-1.606
83400.000			8.032			-1.606
83500.000			8.032			-1.606
83601.000			8.032			-1.606
83700.000			8.031			-1.606
83800.000			8.031			-1.606
83901.000			8.031			-1.606
84001.000			8.030			-1.606
84101.000			8.030			-1.606
84201.000			8.031			-1.606
84300.000			8.030			-1.606
84400.000			8.029			-1.606
84501.000			8.030			-1.606
84600.000			8.029			-1.606
84700.000			8.029			-1.606
84802.000			8.029			-1.606
84901.000			8.028			-1.606
85000.000			8.027			-1.605
85101.000			8.028			-1.606
85200.000			8.028			-1.606
85301.000			8.027			-1.605
85400.000			8.028			-1.606
85500.000			8.028			-1.606
85602.000			8.027			-1.605
85701.000			8.027			-1.605
85801.000			8.028			-1.606
85901.000			8.028			-1.606
86000.000			8.028			-1.606
86100.000			8.027			-1.605
86201.000			8.027			-1.605
86300.000			8.027			-1.605
86400.000			8.027			-1.605
86502.000			8.027			-1.605
86601.000			8.027			-1.605
86700.000			8.028			-1.606
86801.000			8.027			-1.605
86900.000			8.027			-1.605
87000.000			8.026			-1.605
87101.000			8.026			-1.605
87200.000			8.026			-1.605
87301.000			8.026			-1.605
87402.000			8.026			-1.605
87500.000			8.026			-1.605
87600.000			8.026			-1.605
87701.000			8.026			-1.605
87800.000			8.027			-1.605
87900.000			8.026			-1.605
88001.000			8.024			-1.605
88101.000			8.025			-1.605
88201.000			8.025			-1.605
88302.000			8.026			-1.605
88400.000			8.027			-1.605
88501.000			8.026			-1.605
88600.000			8.025			-1.605
88700.000			8.025			-1.605
88801.000			8.025			-1.605
88900.000			8.024			-1.605
89001.000			8.024			-1.605
89102.000			8.024			-1.605
89200.000			8.024			-1.605
89300.000			8.023			-1.605
89401.000			8.024			-1.605
89500.000			8.024			-1.605
89600.000			8.023			-1.605
89701.000			8.023			-1.605
89801.000			8.022			-1.604
89901.000			8.022			-1.604
90001.000			8.023			-1.605
90100.000			8.022			-1.604
90200.000			8.022			-1.604
90301.000			8.022			-1.604
90400.000			8.022			-1.604
90500.000			8.022			-1.604
90602.000			8.022			-1.604
90701.000			8.022			-1.604
90800.000			8.021			-1.604
90901.000			8.021			-1.604
91000.000			8.020			-1.604
91100.000			8.020			-1.604
91201.000			8.020			-1.604
91300.000			8.019			-1.604
91401.000			8.019			-1.604
91502.000			8.018			-1.604
91600.000			8.018			-1.604
91701.000			8.018			-1.604
91800.000			8.019			-1.604
91900.000			8.019			-1.604
92001.000			8.018			-1.604
92100.000			8.017			-1.603
92201.000			8.018			-1.604
92302.000			8.018			-1.604
92400.000			8.018			-1.604
92500.000			8.018			-1.604
92601.000			8.017			-1.603
92700.000			8.016			-1.603
92800.000			8.017			-1.603
92901.000			8.018			-1.604
93001.000			8.017			-1.603
93101.000			8.017			-1.603
93201.000			8.017			-1.603
93300.000			8.016			-1.603
93400.000			8.015			-1.603
93501.000			8.015			-1.603
93600.000			8.015			-1.603
93700.000			8.015			-1.603
93802.000			8.015			-1.603
93901.000			8.015			-1.603
94000.000			8.015			-1.603
94101.000			8.015			-1.603
94200.000			8.014			-1.603
94300.000			8.014			-1.603
94401.000			8.014			-1.603
94500.000			8.014			-1.603
94601.000			8.013			-1.603
94702.000			8.013			-1.603
94800.000			8.013			-1.603
94901.000			8.013			-1.603
95000.000			8.013			-1.603
95100.000			8.013			-1.603
95201.000			8.012			-1.602
95300.000			8.012			-1.602
95401.000			8.012			-1.602
95502.000			8.012			-1.602
95600.000			8.011			-1.602
95700.000			8.011			-1.602
95801.000			8.011			-1.602
95900.000			8.011			-1.602
96000.000			8.011			-1.602
96101.000			8.011			-1.602
96201.000			8.011			-1.602
96301.000			8.010			-1.602
96401.000			8.010			-1.602
96500.000			8.010			-1.602
96600.000			8.010			-1.602
96701.000			8.010			-1.602
96800.000			8.010			-1.602
96900.000			8.010			-1.602
97002.000			8.009			-1.602
97101.000			8.010			-1.602
97200.000			8.010			-1.602
97301.000			8.009			-1.602
97400.000			8.008			-1.602
97500.000			8.008			-1.602
97601.000			8.009			-1.602
97700.000			8.009			-1.602
97801.000			8.008			-1.602
97902.000			8.008			-1.602
98001.000			8.008			-1.602
98101.000			8.007			-1.601
98200.000			8.007			-1.601
98300.000			8.007			-1.601
98401.000			8.007			-1.601
98500.000			8.008			-1.602
98600.000			8.008			-1.602
98702.000			8.008			-1.602
98801.000			8.007			-1.601
98900.000			8.007			-1.601
99001.000			8.006			-1.601
99100.000			8.006			-1.601
99200.000			8.005			-1.601
99301.000			8.006			-1.601
99400.000			8.006			-1.601
99501.000			8.005			-1.601
99602.000			8.006			-1.601
99700.000			8.006			-1.601
99800.000			8.006			-1.601
99901.000			8.006			-1.601
100000.000			8.005			-1.601
100100.000			8.004			-1.601
100201.000			8.005			-1.601
100301.000			8.006			-1.601
100401.000			8.007			-1.601
100501.000			8.007			-1.601
100600.000			8.006			-1.601
100700.000			8.005			-1.601
100801.000			8.005			-1.601
100900.000			8.005			-1.601
101000.000			8.004			-1.601
101102.000			8.004			-1.601
101201.000			8.004			-1.601
101301.000			8.004			-1.601
101400.000			8.004			-1.601
101500.000			8.004			-1.601
101601.000			8.003			-1.601
101700.000			8.003			-1.601
101800.000			8.004			-1.601
101902.000			8.004			-1.601
102001.000			8.004			-1.601
102100.000			8.003			-1.601
102201.000			8.002			-1.600
102300.000			8.002			-1.600
102400.000			8.003			-1.601
102501.000			8.002			-1.600
102600.000			8.002			-1.600
102701.000			8.003			-1.601
102802.000			8.003			-1.601
102900.000			8.001			-1.600
103000.000			8.002			-1.600
103101.000			8.002			-1.600
103200.000			8.003			-1.601
103300.000			8.001			-1.600
103401.000			8.001			-1.600
103501.000			8.002			-1.600
103601.000			8.001			-1.600
103701.000			8.001			-1.600
103800.000			8.000			-1.600
103900.000			8.002			-1.600
104001.000			8.001			-1.600
104100.000			8.001			-1.600
104200.000			8.000			-1.600
104302.000			8.001			-1.600
104401.000			8.002			-1.600
104501.000			8.001			-1.600
104600.000			7.999			-1.600
104700.000			8.000			-1.600
104801.000			8.001			-1.600
104900.000			8.001			-1.600
105000.000			8.000			-1.600
105101.000			7.999			-1.600
105201.000			7.998			-1.600
105301.000			7.998			-1.600
105401.000			7.999			-1.600
105500.000			7.997			-1.599
105600.000			7.998			-1.600
105701.000			7.998			-1.600
105800.000			7.998			-1.600
105900.000			7.997			-1.599
106001.000			7.997			-1.599
106101.000			7.997			-1.599
106201.000			7.997			-1.599
106301.000			7.997			-1.599
106400.000			7.997			-1.599
106500.000			7.996			-1.599
106601.000			7.996			-1.599
106700.000			7.996			-1.599
106800.000			7.996			-1.599
106902.000			7.996			-1.599
107001.000			7.996			-1.599
107101.000			7.996			-1.599
107201.000			7.995			-1.599
107300.000			7.994			-1.599
107400.000			7.995			-1.599
107501.000			7.995			-1.599
107600.000			7.995			-1.599
107701.000			7.995			-1.599
107800.000			7.994			-1.599
107901.000			7.995			-1.599
108002.000			7.994			-1.599
108100.000			7.994			-1.599
108200.000			7.994			-1.599
108301.000			7.995			-1.599
108400.000			7.995			-1.599
108500.000			7.995			-1.599
108601.000			7.994			-1.599
108701.000			7.992			-1.598
108801.000			7.993			-1.599
108902.000			7.993			-1.599
109000.000			7.993			-1.599
109100.000			7.993			-1.599
109201.000			7.993			-1.599
109300.000			7.992			-1.598
109400.000			7.992			-1.598
109501.000			7.993			-1.599
109601.000			7.993			-1.599
109701.000			7.992			-1.598
109802.000			7.993			-1.599
109900.000			7.993			-1.599
110000.000			7.992			-1.598
110101.000			7.992			-1.598
110200.000			7.991			-1.598
110300.000			7.991			-1.598
110401.000			7.991			-1.598
110501.000			7.991			-1.598
110601.000			7.992			-1.598
110701.000			7.991			-1.598
110800.000			7.992			-1.598
110901.000			7.990			-1.598
111000.000			7.991			-1.598
111100.000			7.991			-1.598
111201.000			7.990			-1.598
111300.000			7.990			-1.598
111401.000			7.990			-1.598
111502.000			7.990			-1.598
111600.000			7.991			-1.598
111700.000			7.989			-1.598
111801.000			7.989			-1.598
111900.000			7.989			-1.598
112000.000			7.989			-1.598
112101.000			7.989			-1.598
112201.000			7.988			-1.598
112301.000			7.989			-1.598
112402.000			7.989			-1.598
112500.000			7.989			-1.598
112600.000			7.989			-1.598
112701.000			7.988			-1.598
112800.000			7.988			-1.598
112900.000			7.988			-1.598
113001.000			7.988			-1.598
113101.000			7.988			-1.598
113201.000			7.988			-1.598
113301.000			7.988			-1.598
113400.000			7.988			-1.598
113500.000			7.987			-1.597
113601.000			7.987			-1.597
113700.000			7.986			-1.597
113800.000			7.986			-1.597
113901.000			7.986			-1.597
114001.000			7.986			-1.597
114102.000			7.986			-1.597
114201.000			7.986			-1.597
114300.000			7.986			-1.597
114401.000			7.985			-1.597
114500.000			7.985			-1.597
114600.000			7.986			-1.597
114701.000			7.986			-1.597
114800.000			7.985			-1.597
114901.000			7.984			-1.597
115002.000			7.985			-1.597
115101.000			7.985			-1.597
115200.000			7.985			-1.597
115301.000			7.984			-1.597
115400.000			7.985			-1.597
115500.000			7.985			-1.597
115601.000			7.984			-1.597
115700.000			7.984			-1.597
115801.000			7.984			-1.597
115902.000			7.984			-1.597
116001.000			7.985			-1.597
116100.000			7.985			-1.597
116201.000			7.984			-1.597
116300.000			7.983			-1.597
116400.000			7.983			-1.597
116501.000			7.982			-1.596
116600.000			7.982			-1.596
116701.000			7.983			-1.597
116802.000			7.983			-1.597
116900.000			7.982			-1.596
117000.000			7.982			-1.596
117101.000			7.982			-1.596
117200.000			7.983			-1.597
117301.000			7.982			-1.596
117400.000			7.982			-1.596
117500.000			7.981			-1.596
117602.000			7.982			-1.596
117701.000			7.983			-1.597
117800.000			7.983			-1.597
117901.000			7.981			-1.596
118000.000			7.981			-1.596
118100.000			7.981			-1.596
118201.000			7.981			-1.596
118300.000			7.981			-1.596
118400.000			7.980			-1.596
118502.000			7.979			-1.596
118601.000			7.981			-1.596
118700.000			7.981			-1.596
118801.000			7.980			-1.596
118900.000			7.979			-1.596
119000.000			7.980			-1.596
119101.000			7.980			-1.596
119200.000			7.980			-1.596
119300.000			7.979			-1.596
119402.000			7.979			-1.596
119501.000			7.979			-1.596
119600.000			7.979			-1.596
119701.000			7.979			-1.596
119800.000			7.978			-1.596
119900.000			7.978			-1.596
120001.000			7.978			-1.596
120100.000			7.980			-1.596
120200.000			7.979			-1.596
120302.000			7.979			-1.596
120401.000			7.978			-1.596
120501.000			7.979			-1.596
120600.000			7.978			-1.596
120700.000			7.977			-1.595
120801.000			7.978			-1.596
120900.000			7.978			-1.596
121000.000			7.978			-1.596
121101.000			7.976			-1.595
121201.000			7.977			-1.595
121301.000			7.976			-1.595
121401.000			7.976			-1.595
121500.000			7.977			-1.595
121600.000			7.976			-1.595
121701.000			7.975			-1.595
121800.000			7.976			-1.595
121900.000			7.977			-1.595
122002.000			7.976			-1.595
122101.000			7.976			-1.595
122201.000			7.976			-1.595
122301.000			7.976			-1.595
122400.000			7.975			-1.595
122500.000			7.975			-1.595
122601.000			7.975			-1.595
122700.000			7.974			-1.595
122800.000			7.974			-1.595
122902.000			7.975			-1.595
123001.000			7.975			-1.595
123101.000			7.973			-1.595
123201.000			7.974			-1.595
123300.000			7.974			-1.595
123400.000			7.974			-1.595
123501.000			7.974			-1.595
123600.000			7.973			-1.595
123701.000			7.973			-1.595
123801.000			7.973			-1.595
123901.000			7.973			-1.595
124001.000			7.972			-1.594
124100.000			7.972			-1.594
124200.000			7.972			-1.594
124301.000			7.973			-1.595
124400.000			7.973			-1.595
124500.000			7.972			-1.594
124601.000			7.972			-1.594
124701.000			7.971			-1.594
124801.000			7.972			-1.594
124901.000			7.971			-1.594
125000.000			7.970			-1.594
125100.000			7.971			-1.594
125201.000			7.970			-1.594
125300.000			7.970			-1.594
125400.000			7.971			-1.594
125502.000			7.971			-1.594
125601.000			7.972			-1.594
125701.000			7.971			-1.594
125801.000			7.971			-1.594
125900.000			7.971			-1.594
126000.000			7.971			-1.594
126101.000			7.970			-1.594
126200.000			7.971			-1.594
126300.000			7.970			-1.594
126402.000			7.971			-1.594
126501.000			7.970			-1.594
126600.000			7.969			-1.594
126701.000			7.969			-1.594
126800.000			7.970			-1.594
126901.000			7.968			-1.594
127000.000			7.969			-1.594
127100.000			7.968			-1.594
127201.000			7.970			-1.594
127301.000			7.969			-1.594
127401.000			7.968			-1.594
127501.000			7.968			-1.594
127600.000			7.968			-1.594
127700.000			7.968			-1.594
127801.000			7.969			-1.594
127900.000			7.969			-1.594
128000.000			7.968			-1.594
128101.000			7.967			-1.593
128201.000			7.967			-1.593
128301.000			7.967			-1.593
128401.000			7.968			-1.594
128500.000			7.969			-1.594
128600.000			7.968			-1.594
128701.000			7.968			-1.594
128800.000			7.968			-1.594
128900.000			7.968			-1.594
129001.000			7.967			-1.593
129101.000			7.967			-1.593
129201.000			7.968			-1.594
129302.000			7.968			-1.594
129400.000			7.967			-1.593
129500.000			7.967			-1.593
129601.000			7.967			-1.593
129700.000			7.967			-1.593
129800.000			7.967			-1.593
129901.000			7.967			-1.593
130000.000			7.967			-1.593
130102.000			7.968			-1.594
130201.000			7.967			-1.593
130300.000			7.967			-1.593
130401.000			7.967			-1.593
130500.000			7.967			-1.593
130600.000			7.967			-1.593
130701.000			7.966			-1.593
130800.000			7.966			-1.593
130900.000			7.966			-1.593
131002.000			7.967			-1.593
131101.000			7.967			-1.593
131200.000			7.966			-1.593
131301.000			7.965			-1.593
131400.000			7.966			-1.593
131500.000			7.966			-1.593
131601.000			7.967			-1.593
131700.000			7.966			-1.593
131800.000			7.966			-1.593
131902.000			7.965			-1.593
132001.000			7.965			-1.593
132101.000			7.966			-1.593
132201.000			7.967			-1.593
132300.000			7.965			-1.593
132400.000			7.964			-1.593
132501.000			7.964			-1.593
132600.000			7.965			-1.593
132700.000			7.965			-1.593
132802.000			7.965			-1.593
132901.000			7.965			-1.593
133001.000			7.964			-1.593
133101.000			7.964			-1.593
133200.000			7.964			-1.593
133301.000			7.965			-1.593
133400.000			7.965			-1.593
133500.000			7.965			-1.593
133601.000			7.964			-1.593
133700.000			7.965			-1.593
133801.000			7.965			-1.593
133902.000			7.964			-1.593
134001.000			7.964			-1.593
134100.000			7.965			-1.593
134201.000			7.965			-1.593
134300.000			7.965			-1.593
134400.000			7.963			-1.593
134501.000			7.963			-1.593
134600.000			7.963			-1.593
134700.000			7.964			-1.593
134802.000			7.964			-1.593
134901.000			7.963			-1.593
135000.000			7.962			-1.592
135101.000			7.963			-1.593
135200.000			7.963			-1.593
135300.000			7.962			-1.592
135401.000			7.962			-1.592
135500.000			7.962			-1.592
135600.000			7.963			-1.593
135702.000			7.964			-1.593
135801.000			7.963			-1.593
135901.000			7.962			-1.592
136001.000			7.963			-1.593
136100.000			7.962			-1.592
136200.000			7.963			-1.593
136301.000			7.962			-1.592
136400.000			7.961			-1.592
136501.000			7.961			-1.592
136600.000			7.962			-1.592
136701.000			7.961			-1.592
136802.000			7.961			-1.592
136901.000			7.961			-1.592
137000.000			7.962			-1.592
137101.000			7.960			-1.592
137200.000			7.960			-1.592
137300.000			7.961			-1.592
137401.000			7.962			-1.592
137500.000			7.961			-1.592
137600.000			7.959			-1.592
137702.000			7.960			-1.592
137801.000			7.960			-1.592
137901.000			7.959			-1.592
138001.000			7.959			-1.592
138100.000			7.959			-1.592
138200.000			7.959			-1.592
138301.000			7.959			-1.592
138400.000			7.959			-1.592
138500.000			7.958			-1.592
138601.000			7.958			-1.592
138701.000			7.958			-1.592
138801.000			7.959			-1.592
138902.000			7.959			-1.592
139000.000			7.958			-1.592
139100.000			7.958			-1.592
139201.000			7.958			-1.592
139300.000			7.958			-1.592
139400.000			7.957			-1.591
139501.000			7.957			-1.591
139600.000			7.957			-1.591
139702.000			7.958			-1.592
139801.000			7.958			-1.592
139901.000			7.957			-1.591
140001.000			7.957			-1.591
140100.000			7.956			-1.591
140200.000			7.957			-1.591
140301.000			7.958			-1.592
140400.000			7.957			-1.591
140500.000			7.956			-1.591
140601.000			7.955			-1.591
140701.000			7.955			-1.591
140801.000			7.957			-1.591
140901.000			7.956			-1.591
141000.000			7.956			-1.591
141100.000			7.956			-1.591
141201.000			7.956			-1.591
141300.000			7.956			-1.591
141400.000			7.955			-1.591
141501.000			7.955			-1.591
141601.000			7.955			-1.591
141701.000			7.955			-1.591
141802.000			7.954			-1.591
141900.000			7.954			-1.591
142000.000			7.955			-1.591
142101.000			7.954			-1.591
142200.000			7.954			-1.591
142300.000			7.955			-1.591
142401.000			7.954			-1.591
142500.000			7.954			-1.591
142601.000			7.955			-1.591
142702.000			7.954			-1.591
142801.000			7.953			-1.591
142901.000			7.954			-1.591
143000.000			7.955			-1.591
143100.000			7.954			-1.591
143201.000			7.954			-1.591
143300.000			7.954			-1.591
143400.000			7.954			-1.591
143501.000			7.953			-1.591
143601.000			7.954			-1.591
143701.000			7.954			-1.591
143801.000			7.954			-1.591
143900.000			7.953			-1.591
144000.000			7.952			-1.590
144101.000			7.952			-1.590
144200.000			7.953			-1.591
144300.000			7.953			-1.591
144401.000			7.952			-1.590
144501.000			7.952			-1.590
144601.000			7.952			-1.590
144702.000			7.953			-1.591
144800.000			7.952			-1.590
144900.000			7.952			-1.590
145001.000			7.952			-1.590
145100.000			7.951			-1.590
145200.000			7.951			-1.590
145301.000			7.952			-1.590
145400.000			7.951			-1.590
145501.000			7.951			-1.590
145602.000			7.951			-1.590
145700.000			7.950			-1.590
145800.000			7.951			-1.590
145901.000			7.951			-1.590
146000.000			7.950			-1.590
146101.000			7.950			-1.590
146200.000			7.950			-1.590
146300.000			7.950			-1.590
146402.000			7.951			-1.590
146501.000			7.951			-1.590
146601.000			7.949			-1.590
146701.000			7.949			-1.590
146800.000			7.949			-1.590
146900.000			7.950			-1.590
147001.000			7.950			-1.590
147100.000			7.950			-1.590
147200.000			7.950			-1.590
147301.000			7.950			-1.590
147401.000			7.949			-1.590
147501.000			7.949			-1.590
147602.000			7.948			-1.590
147700.000			7.948			-1.590
147800.000			7.948			-1.590
147901.000			7.949			-1.590
148000.000			7.949			-1.590
148100.000			7.949			-1.590
148201.000			7.948			-1.590
148300.000			7.947			-1.589
148401.000			7.947			-1.589
148502.000			7.947			-1.589
148601.000			7.946			-1.589
148700.000			7.947			-1.589
148801.000			7.947			-1.589
148900.000			7.948			-1.590
149000.000			7.948			-1.590
149101.000			7.948			-1.590
149200.000			7.947			-1.589
149301.000			7.947			-1.589
149401.000			7.947			-1.589
149501.000			7.946			-1.589
149602.000			7.946			-1.589
149700.000			7.946			-1.589
149800.000			7.947			-1.589
149901.000			7.947			-1.589
150000.000			7.946			-1.589
150100.000			7.944			-1.589
150201.000			7.945			-1.589
150300.000			7.946			-1.589
150401.000			7.946			-1.589
150502.000			7.946			-1.589
150601.000			7.945			-1.589
150700.000			7.944			-1.589
150801.000			7.944			-1.589
150900.000			7.944			-1.589
151000.000			7.944			-1.589
151101.000			7.944			-1.589
151200.000			7.944			-1.589
151300.000			7.944			-1.589
151402.000			7.944			-1.589
151501.000			7.943			-1.589
151600.000			7.943			-1.589
151701.000			7.943			-1.589
151800.000			7.943			-1.589
151900.000			7.944			-1.589
152001.000			7.944			-1.589
152100.000			7.944			-1.589
152200.000			7.944			-1.589
152302.000			7.944			-1.589
152401.000			7.944			-1.589
152502.000			7.943			-1.589
152600.000			7.943			-1.589
152700.000			7.943			-1.589
152801.000			7.943			-1.589
152900.000			7.943			-1.589
153000.000			7.942			-1.588
153101.000			7.942			-1.588
153200.000			7.942			-1.588
153301.000			7.942			-1.588
153402.000			7.942			-1.588
153500.000			7.942			-1.588
153600.000			7.943			-1.589
153701.000			7.942			-1.588
153800.000			7.942			-1.588
153900.000			7.941			-1.588
154001.000			7.942			-1.588
154100.000			7.942			-1.588
154201.000			7.941			-1.588
154302.000			7.941			-1.588
154401.000			7.941			-1.588
154500.000			7.942			-1.588
154601.000			7.941			-1.588
154700.000			7.941			-1.588
154800.000			7.940			-1.588
154901.000			7.940			-1.588
155000.000			7.940			-1.588
155100.000			7.940			-1.588
155202.000			7.941			-1.588
155301.000			7.941			-1.588
155400.000			7.940			-1.588
155501.000			7.940			-1.588
155600.000			7.940			-1.588
155701.000			7.941			-1.588
155800.000			7.941			-1.588
155900.000			7.940			-1.588
156001.000			7.939			-1.588
156101.000			7.938			-1.588
156201.000			7.939			-1.588
156302.000			7.938			-1.588
156400.000			7.938			-1.588
156500.000			7.938			-1.588
156601.000			7.938			-1.588
156700.000			7.938			-1.588
156800.000			7.938			-1.588
156901.000			7.939			-1.588
157000.000			7.938			-1.588
157100.000			7.938			-1.588
157202.000			7.938			-1.588
157301.000			7.938			-1.588
157400.000			7.938			-1.588
157501.000			7.939			-1.588
157600.000			7.938			-1.588
157700.000			7.938			-1.588
157801.000			7.938			-1.588
157900.000			7.937			-1.587
158000.000			7.938			-1.588
158101.000			7.937			-1.587
158201.000			7.936			-1.587
158301.000			7.936			-1.587
158401.000			7.936			-1.587
158500.000			7.936			-1.587
158600.000			7.935			-1.587
158701.000			7.936			-1.587
158800.000			7.936			-1.587
158901.000			7.936			-1.587
159000.000			7.936			-1.587
159100.000			7.935			-1.587
159202.000			7.935			-1.587
159301.000			7.934			-1.587
159400.000			7.936			-1.587
159501.000			7.936			-1.587
159600.000			7.935			-1.587
159700.000			7.935			-1.587
159801.000			7.934			-1.587
159900.000			7.935			-1.587
160000.000			7.935			-1.587
160101.000			7.935			-1.587
160201.000			7.934			-1.587
160301.000			7.934			-1.587
160401.000			7.934			-1.587
160500.000			7.934			-1.587
160600.000			7.935			-1.587
160701.000			7.934			-1.587
160800.000			7.934			-1.587
160900.000			7.934			-1.587
161001.000			7.934			-1.587
161101.000			7.934			-1.587
161201.000			7.933			-1.587
161302.000			7.934			-1.587
161400.000			7.934			-1.587
161500.000			7.933			-1.587
161601.000			7.933			-1.587
161700.000			7.934			-1.587
161800.000			7.932			-1.586
161901.000			7.933			-1.587
162000.000			7.932			-1.586
162102.000			7.932			-1.586
162201.000			7.931			-1.586
162300.000			7.932			-1.586
162401.000			7.932			-1.586
162500.000			7.932			-1.586
162600.000			7.932			-1.586
162701.000			7.932			-1.586
162800.000			7.933			-1.587
162900.000			7.932			-1.586
163002.000			7.932			-1.586
163101.000			7.932			-1.586
163201.000			7.932			-1.586
163301.000			7.931			-1.586
163400.000			7.931			-1.586
163500.000			7.932			-1.586
163601.000			7.931			-1.586
163700.000			7.931			-1.586
163800.000			7.932			-1.586
163902.000			7.931			-1.586
164001.000			7.932			-1.586
164101.000			7.930			-1.586
164201.000			7.930			-1.586
164300.000			7.931			-1.586
164400.000			7.930			-1.586
164501.000			7.932			-1.586
164600.000			7.932			-1.586
164700.000			7.930			-1.586
164801.000			7.931			-1.586
164901.000			7.931			-1.586
165001.000			7.931			-1.586
165101.000			7.930			-1.586
165200.000			7.930			-1.586
165301.000			7.930			-1.586
165400.000			7.930			-1.586
165500.000			7.930			-1.586
165601.000			7.930			-1.586
165700.000			7.929			-1.586
165800.000			7.929			-1.586
165902.000			7.929			-1.586
166001.000			7.930			-1.586
166101.000			7.929			-1.586
166201.000			7.930			-1.586
166300.000			7.930			-1.586
166400.000			7.928			-1.586
166501.000			7.929			-1.586
166600.000			7.929			-1.586
166700.000			7.929			-1.586
166801.000			7.929			-1.586
166901.000			7.929			-1.586
167001.000			7.928			-1.586
167102.000			7.929			-1.586
167200.000			7.929			-1.586
167300.000			7.929			-1.586
167401.000			7.928			-1.586
167500.000			7.928			-1.586
167600.000			7.928			-1.586
167701.000			7.927			-1.585
167800.000			7.928			-1.586
167901.000			7.928			-1.586
168002.000			7.928			-1.586
168101.000			7.928			-1.586
168200.000			7.928			-1.586
168301.000			7.927			-1.585
168400.000			7.927			-1.585
168501.000			7.926			-1.585
168600.000			7.927			-1.585
168700.000			7.927			-1.585
168801.000			7.926			-1.585
168901.000			7.926			-1.585
169001.000			7.926			-1.585
169102.000			7.926			-1.585
169200.000			7.927			-1.585
169300.000			7.927			-1.585
169401.000			7.927			-1.585
169500.000			7.927			-1.585
169600.000			7.927			-1.585
169701.000			7.927			-1.585
169800.000			7.927			-1.585
169901.000			7.926			-1.585
170002.000			7.925			-1.585
170101.000			7.925			-1.585
170200.000			7.925			-1.585
170301.000			7.926			-1.585
170400.000			7.927			-1.585
170500.000			7.926			-1.585
170601.000			7.926			-1.585
170700.000			7.926			-1.585
170800.000			7.926			-1.585
170902.000			7.926			-1.585
171001.000			7.926			-1.585
171101.000			7.927			-1.585
171201.000			7.925			-1.585
171300.000			7.924			-1.585
171400.000			7.925			-1.585
171501.000			7.925			-1.585
171600.000			7.925			-1.585
171701.000			7.925			-1.585
171800.000			7.926			-1.585
171901.000			7.924			-1.585
172002.000			7.924			-1.585
172100.000			7.926			-1.585
172200.000			7.926			-1.585
172301.000			7.925			-1.585
172400.000			7.924			-1.585
172500.000			7.924			-1.585
172601.000			7.923			-1.585
172700.000			7.923			-1.585
172801.000			7.925			-1.585
172902.000			7.925			-1.585
173001.000			7.923			-1.585
173100.000			7.923			-1.585
173201.000			7.923			-1.585
173300.000			7.924			-1.585
173400.000			7.924			-1.585
173501.000			7.924			-1.585
173600.000			7.923			-1.585
173700.000			7.923			-1.585
173802.000			7.924			-1.585
173901.000			7.924			-1.585
174001.000			7.922			-1.584
174101.000			7.923			-1.585
174200.000			7.924			-1.585
174300.000			7.923			-1.585
174401.000			7.923			-1.585
174500.000			7.923			-1.585
174600.000			7.923			-1.585
174701.000			7.922			-1.584
174801.000			7.922			-1.584
174902.000			7.922			-1.584
175001.000			7.922			-1.584
175100.000			7.923			-1.585
175201.000			7.923			-1.585
175300.000			7.923			-1.585
175400.000			7.923			-1.585
175501.000			7.923			-1.585
175600.000			7.922			-1.584
175701.000			7.923			-1.585
175802.000			7.923			-1.585
175901.000			7.923			-1.585
176000.000			7.922			-1.584
176101.000			7.922			-1.584
176200.000			7.922			-1.584
176300.000			7.922			-1.584
176401.000			7.923			-1.585
176500.000			7.922			-1.584
176600.000			7.921			-1.584
176702.000			7.921			-1.584
176801.000			7.921			-1.584
176901.000			7.921			-1.584
177001.000			7.922			-1.584
177100.000			7.922			-1.584
177200.000			7.922			-1.584
177301.000			7.922			-1.584
177400.000			7.922			-1.584
177500.000			7.922			-1.584
177601.000			7.921			-1.584
177701.000			7.921			-1.584
177801.000			7.921			-1.584
177901.000			7.920			-1.584
178000.000			7.920			-1.584
178101.000			7.921			-1.584
178200.000			7.921			-1.584
178300.000			7.920			-1.584
178401.000			7.920			-1.584
178500.000			7.921			-1.584
178600.000			7.920			-1.584
178702.000			7.919			-1.584
178801.000			7.919			-1.584
178900.000			7.919			-1.584
179001.000			7.919			-1.584
179100.000			7.919			-1.584
179200.000			7.919			-1.584
179301.000			7.919			-1.584
179400.000			7.920			-1.584
179500.000			7.921			-1.584
179602.000			7.920			-1.584
179701.000			7.920			-1.584
179801.000			7.920			-1.584
179901.000			7.920			-1.584
180000.000			7.919			-1.584
180100.000			7.919			-1.584
180201.000			7.919			-1.584
180300.000			7.919			-1.584
180400.000			7.920			-1.584
180501.000			7.920			-1.584
180601.000			7.919			-1.584
180701.000			7.919			-1.584
180802.000			7.920			-1.584
180900.000			7.919			-1.584
181000.000			7.919			-1.584
181101.000			7.919			-1.584
181200.000			7.919			-1.584
181301.000			7.919			-1.584
181400.000			7.920			-1.584
181500.000			7.918			-1.584
181602.000			7.919			-1.584
181701.000			7.918			-1.584
181800.000			7.918			-1.584
181901.000			7.918			-1.584
182000.000			7.918			-1.584
182100.000			7.918			-1.584
182201.000			7.918			-1.584
182300.000			7.918			-1.584
182400.000			7.918			-1.584
182502.000			7.918			-1.584
182601.000			7.916			-1.583
182701.000			7.917			-1.583
182801.000			7.917			-1.583
182900.000			7.917			-1.583
183000.000			7.917			-1.583
183101.000			7.917			-1.583
183200.000			7.916			-1.583
183300.000			7.916			-1.583
183401.000			7.917			-1.583
183501.000			7.917			-1.583
183601.000			7.916			-1.583
183701.000			7.915			-1.583
183800.000			7.916			-1.583
183900.000			7.914			-1.583
184001.000			7.916			-1.583
184100.000			7.916			-1.583
184200.000			7.915			-1.583
184301.000			7.914			-1.583
184401.000			7.913			-1.583
184502.000			7.914			-1.583
184601.000			7.914			-1.583
184700.000			7.914			-1.583
184801.000			7.914			-1.583
184900.000			7.914			-1.583
185000.000			7.914			-1.583
185101.000			7.915			-1.583
185200.000			7.914			-1.583
185300.000			7.915			-1.583
185402.000			7.914			-1.583
185501.000			7.913			-1.583
185601.000			7.913			-1.583
185701.000			7.912			-1.582
185800.000			7.912			-1.582
185900.000			7.913			-1.583
186001.000			7.913			-1.583
186100.000			7.912			-1.582
186200.000			7.912			-1.582
186301.000			7.911			-1.582
186401.000			7.911			-1.582
186501.000			7.911			-1.582
186601.000			7.911			-1.582
186700.000			7.911			-1.582
186800.000			7.910			-1.582
186901.000			7.910			-1.582
187000.000			7.910			-1.582
187100.000			7.910			-1.582
187201.000			7.911			-1.582
187301.000			7.911			-1.582
187401.000			7.910			-1.582
187502.000			7.910			-1.582
187600.000			7.911			-1.582
187701.000			7.910			-1.582
187800.000			7.911			-1.582
187900.000			7.910			-1.582
188001.000			7.909			-1.582
188100.000			7.910			-1.582
188200.000			7.910			-1.582
188302.000			7.909			-1.582
188401.000			7.909			-1.582
188501.000			7.909			-1.582
188601.000			7.910			-1.582
188700.000			7.909			-1.582
188800.000			7.909			-1.582
188901.000			7.909			-1.582
189000.000			7.909			-1.582
189100.000			7.909			-1.582
189201.000			7.909			-1.582
189301.000			7.909			-1.582
189401.000			7.908			-1.582
189502.000			7.908			-1.582
189600.000			7.908			-1.582
189700.000			7.908			-1.582
189801.000			7.908			-1.582
189900.000			7.908			-1.582
190000.000			7.908			-1.582
190101.000			7.907			-1.581
190200.000			7.908			-1.582
190301.000			7.908			-1.582
190402.000			7.908			-1.582
190501.000			7.907			-1.581
190600.000			7.907			-1.581
190701.000			7.907			-1.581
190800.000			7.907			-1.581
190901.000			7.907			-1.581
191000.000			7.906			-1.581
191100.000			7.906			-1.581
191201.000			7.906			-1.581
191301.000			7.907			-1.581
191401.000			7.907			-1.581
191501.000			7.907			-1.581
191600.000			7.908			-1.582
191700.000			7.907			-1.581
191801.000			7.907			-1.581
191900.000			7.907			-1.581
192000.000			7.907			-1.581
192101.000			7.906			-1.581
192201.000			7.905			-1.581
192301.000			7.905			-1.581
192402.000			7.905			-1.581
192500.000			7.906			-1.581
192600.000			7.906			-1.581
192701.000			7.906			-1.581
192800.000			7.906			-1.581
192900.000			7.905			-1.581
193001.000			7.905			-1.581
193100.000			7.905			-1.581
193201.000			7.905			-1.581
193302.000			7.905			-1.581
193401.000			7.906			-1.581
193500.000			7.906			-1.581
193601.000			7.904			-1.581
193700.000			7.904			-1.581
193800.000			7.905			-1.581
193901.000			7.904			-1.581
194000.000			7.905			-1.581
194101.000			7.905			-1.581
194201.000			7.905			-1.581
194301.000			7.905			-1.581
194401.000			7.904			-1.581
194500.000			7.905			-1.581
194600.000			7.905			-1.581
194701.000			7.904			-1.581
194800.000			7.905			-1.581
194900.000			7.905			-1.581
195001.000			7.904			-1.581
195100.000			7.904			-1.581
195201.000			7.904			-1.581
195302.000			7.905			-1.581
195400.000			7.904			-1.581
195500.000			7.904			-1.581
195601.000			7.905			-1.581
195700.000			7.905			-1.581
195800.000			7.905			-1.581
195901.000			7.905			-1.581
196000.000			7.905			-1.581
196101.000			7.905			-1.581
196202.000			7.905			-1.581
196301.000			7.904			-1.581
196400.000			7.905			-1.581
196501.000			7.904			-1.581
196600.000			7.904			-1.581
196700.000			7.904			-1.581
196801.000			7.905			-1.581
196900.000			7.904			-1.581
197000.000			7.903			-1.581
197102.000			7.905			-1.581
197201.000			7.905			-1.581
197301.000			7.905			-1.581
197400.000			7.903			-1.581
197500.000			7.903			-1.581
197601.000			7.902			-1.580
197700.000			7.902			-1.580
197800.000			7.902			-1.580
197901.000			7.903			-1.581
198000.000			7.903			-1.581
198101.000			7.902			-1.580
198202.000			7.902			-1.580
198300.000			7.902			-1.580
198400.000			7.901			-1.580
198501.000			7.901			-1.580
198600.000			7.902			-1.580
198700.000			7.902			-1.580
198801.000			7.900			-1.580
198900.000			7.900			-1.580
199000.000			7.901			-1.580
199102.000			7.902			-1.580
199201.000			7.902			-1.580
199300.000			7.901			-1.580
199401.000			7.901			-1.580
199500.000			7.901			-1.580
199600.000			7.901			-1.580
199701.000			7.900			-1.580
199800.000			7.900			-1.580
199900.000			7.900			-1.580
200002.000			7.900			-1.580
200101.000			7.900			-1.580
200201.000			7.901			-1.580
200301.000			7.901			-1.580
200400.000			7.901			-1.580
200501.000			7.900			-1.580
200600.000			7.901			-1.580
200700.000			7.900			-1.580
200801.000			7.900			-1.580
200901.000			7.900			-1.580
201001.000			7.900			-1.580
201102.000			7.900			-1.580
201200.000			7.898			-1.580
201300.000			7.898			-1.580
201401.000			7.899			-1.580
201500.000			7.901			-1.580
201600.000			7.899			-1.580
201701.000			7.899			-1.580
201800.000			7.899			-1.580
201901.000			7.898			-1.580
202002.000			7.898			-1.580
202100.000			7.898			-1.580
202200.000			7.898			-1.580
202301.000			7.898			-1.580
202400.000			7.897			-1.579
202500.000			7.898			-1.580
202601.000			7.897			-1.579
202700.000			7.898			-1.580
202801.000			7.898			-1.580
202902.000			7.898			-1.580
203001.000			7.897			-1.579
203100.000			7.897			-1.579
203201.000			7.898			-1.580
203300.000			7.897			-1.579
203400.000			7.897			-1.579
203501.000			7.897			-1.579
203600.000			7.896			-1.579
203701.000			7.897			-1.579
203801.000			7.897			-1.579
203901.000			7.896			-1.579
204002.000			7.897			-1.579
204100.000			7.897			-1.579
204200.000			7.897			-1.579
204301.000			7.895			-1.579
204400.000			7.896			-1.579
204500.000			7.897			-1.579
204601.000			7.897			-1.579
204700.000			7.896			-1.579
204801.000			7.896			-1.579
204902.000			7.897			-1.579
205001.000			7.896			-1.579
205100.000			7.895			-1.579
205201.000			7.896			-1.579
205300.000			7.896			-1.579
205400.000			7.896			-1.579
205501.000			7.896			-1.579
205600.000			7.895			-1.579
205700.000			7.894			-1.579
205802.000			7.895			-1.579
205901.000			7.895			-1.579
206000.000			7.895			-1.579
206101.000			7.895			-1.579
206200.000			7.895			-1.579
206300.000			7.895			-1.579
206401.000			7.895			-1.579
206500.000			7.895			-1.579
206600.000			7.895			-1.579
206702.000			7.895			-1.579
206801.000			7.894			-1.579
206902.000			7.894			-1.579
207000.000			7.894			-1.579
207100.000			7.895			-1.579
207201.000			7.894			-1.579
207300.000			7.894			-1.579
207400.000			7.895			-1.579
207501.000			7.895			-1.579
207600.000			7.894			-1.579
207701.000			7.895			-1.579
207802.000			7.894			-1.579
207901.000			7.894			-1.579
208000.000			7.893			-1.579
208101.000			7.893			-1.579
208200.000			7.894			-1.579
208300.000			7.893			-1.579
208401.000			7.894			-1.579
208500.000			7.893			-1.579
208600.000			7.893			-1.579
208702.000			7.893			-1.579
208801.000			7.893			-1.579
208900.000			7.894			-1.579
209001.000			7.893			-1.579
209100.000			7.892			-1.578
209200.000			7.894			-1.579
209301.000			7.893			-1.579
209400.000			7.893			-1.579
209500.000			7.893			-1.579
209601.000			7.892			-1.578
209701.000			7.893			-1.579
209801.000			7.893			-1.579
209901.000			7.892			-1.578
210000.000			7.892			-1.578
210101.000			7.893			-1.579
210200.000			7.892			-1.578
210300.000			7.892			-1.578
210401.000			7.893			-1.579
210500.000			7.892			-1.578
210600.000			7.892			-1.578
210702.000			7.891			-1.578
210801.000			7.892			-1.578
210900.000			7.893			-1.579
211001.000			7.892			-1.578
211100.000			7.891			-1.578
211200.000			7.892			-1.578
211301.000			7.891			-1.578
211400.000			7.891			-1.578
211500.000			7.890			-1.578
211602.000			7.890			-1.578
211701.000			7.891			-1.578
211800.000			7.891			-1.578
211901.000			7.891			-1.578
212000.000			7.891			-1.578
212100.000			7.892			-1.578
212201.000			7.891			-1.578
212300.000			7.891			-1.578
212400.000			7.891			-1.578
212502.000			7.892			-1.578
212601.000			7.892			-1.578
212701.000			7.892			-1.578
212801.000			7.891			-1.578
212900.000			7.891			-1.578
213000.000			7.891			-1.578
213101.000			7.891			-1.578
213200.000			7.890			-1.578
213301.000			7.891			-1.578
213400.000			7.892			-1.578
213501.000			7.891			-1.578
213602.000			7.892			-1.578
213701.000			7.892			-1.578
213800.000			7.892			-1.578
213901.000			7.891			-1.578
214000.000			7.892			-1.578
214100.000			7.892			-1.578
214201.000			7.892			-1.578
214300.000			7.891			-1.578
214400.000			7.891			-1.578
214502.000			7.891			-1.578
214601.000			7.891			-1.578
214700.000			7.893			-1.579
214801.000			7.892			-1.578
214900.000			7.891			-1.578
215000.000			7.891			-1.578
215101.000			7.891			-1.578
215200.000			7.890			-1.578
215300.000			7.891			-1.578
215402.000			7.891			-1.578
215501.000			7.890			-1.578
215601.000			7.890			-1.578
215701.000			7.891			-1.578
215800.000			7.891			-1.578
215900.000			7.891			-1.578
216001.000			7.891			-1.578
216100.000			7.891			-1.578
216200.000			7.891			-1.578
216301.000			7.890			-1.578
216401.000			7.890			-1.578
216502.000			7.891			-1.578
216601.000			7.890			-1.578
216700.000			7.890			-1.578
216801.000			7.891			-1.578
216900.000			7.890			-1.578
217000.000			7.891			-1.578
217101.000			7.891			-1.578
217200.000			7.891			-1.578
217300.000			7.890			-1.578
217402.000			7.890			-1.578
217501.000			7.890			-1.578
217600.000			7.891			-1.578
217701.000			7.891			-1.578
217800.000			7.889			-1.578
217900.000			7.891			-1.578
218001.000			7.891			-1.578
218100.000			7.890			-1.578
218200.000			7.890			-1.578
218301.000			7.890			-1.578
218401.000			7.889			-1.578
218501.000			7.889			-1.578
218601.000			7.890			-1.578
218700.000			7.891			-1.578
218800.000			7.891			-1.578
218901.000			7.890			-1.578
219000.000			7.889			-1.578
219100.000			7.890			-1.578
219201.000			7.890			-1.578
219300.000			7.890			-1.578
219401.000			7.890			-1.578
219502.000			7.889			-1.578
219601.000			7.889			-1.578
219701.000			7.890			-1.578
219800.000			7.889			-1.578
219900.000			7.888			-1.578
220001.000			7.888			-1.578
220100.000			7.889			-1.578
220200.000			7.889			-1.578
220301.000			7.889			-1.578
220401.000			7.889			-1.578
220501.000			7.890			-1.578
220601.000			7.890			-1.578
220700.000			7.890			-1.578
220800.000			7.889			-1.578
220901.000			7.889			-1.578
221000.000			7.888			-1.578
221100.000			7.890			-1.578
221201.000			7.890			-1.578
221301.000			7.889			-1.578
221401.000			7.888			-1.578
221502.000			7.889			-1.578
221600.000			7.888			-1.578
221700.000			7.888			-1.578
221801.000			7.888			-1.578
221900.000			7.887			-1.577
222000.000			7.888			-1.578
222101.000			7.888			-1.578
222200.000			7.889			-1.578
222301.000			7.888			-1.578
222402.000			7.887			-1.577
222501.000			7.887			-1.577
222600.000			7.887			-1.577
222701.000			7.888			-1.578
222800.000			7.888			-1.578
222901.000			7.888			-1.578
223000.000			7.887			-1.577
223100.000			7.886			-1.577
223201.000			7.886			-1.577
223301.000			7.887			-1.577
223401.000			7.887			-1.577
223501.000			7.887			-1.577
223600.000			7.887			-1.577
223700.000			7.886			-1.577
223801.000			7.886			-1.577
223900.000			7.886			-1.577
224000.000			7.885			-1.577
224101.000			7.885			-1.577
224201.000			7.886			-1.577
224301.000			7.886			-1.577
224402.000			7.885			-1.577
224500.000			7.885			-1.577
224600.000			7.885			-1.577
224701.000			7.885			-1.577
224800.000			7.885			-1.577
224900.000			7.885			-1.577
225001.000			7.885			-1.577
225100.000			7.885			-1.577
225201.000			7.883			-1.577
225302.000			7.884			-1.577
225401.000			7.883			-1.577
225500.000			7.884			-1.577
225601.000			7.884			-1.577
225700.000			7.884			-1.577
225800.000			7.883			-1.577
225901.000			7.883			-1.577
226000.000			7.883			-1.577
226101.000			7.883			-1.577
226201.000			7.882			-1.576
226301.000			7.883			-1.577
226402.000			7.883			-1.577
226500.000			7.881			-1.576
226600.000			7.881			-1.576
226701.000			7.881			-1.576
226800.000			7.882			-1.576
226900.000			7.883			-1.577
227001.000			7.883			-1.577
227100.000			7.882			-1.576
227201.000			7.882			-1.576
227302.000			7.881			-1.576
227400.000			7.882			-1.576
227500.000			7.882			-1.576
227601.000			7.881			-1.576
227700.000			7.881			-1.576
227800.000			7.881			-1.576
227901.000			7.880			-1.576
228000.000			7.881			-1.576
228100.000			7.880			-1.576
228202.000			7.880			-1.576
228301.000			7.882			-1.576
228400.000			7.881			-1.576
228501.000			7.881			-1.576
228600.000			7.881			-1.576
228700.000			7.881			-1.576
228801.000			7.880			-1.576
228900.000			7.881			-1.576
229000.000			7.881			-1.576
229102.000			7.880			-1.576
229201.000			7.880			-1.576
229302.000			7.880			-1.576
229400.000			7.881			-1.576
229500.000			7.880			-1.576
229601.000			7.880			-1.576
229700.000			7.881			-1.576
229800.000			7.881			-1.576
229901.000			7.880			-1.576
230000.000			7.880			-1.576
230101.000			7.881			-1.576
230202.000			7.880			-1.576
230301.000			7.880			-1.576
230400.000			7.879			-1.576
230501.000			7.880			-1.576
230600.000			7.879			-1.576
230700.000			7.880			-1.576
230801.000			7.880			-1.576
230900.000			7.880			-1.576
231000.000			7.880			-1.576
231102.000			7.879			-1.576
231201.000			7.878			-1.576
231300.000			7.879			-1.576
231401.000			7.879			-1.576
231500.000			7.879			-1.576
231600.000			7.880			-1.576
231701.000			7.880			-1.576
231800.000			7.879			-1.576
231900.000			7.880			-1.576
232002.000			7.881			-1.576
232101.000			7.881			-1.576
232201.000			7.881			-1.576
232301.000			7.880			-1.576
232400.000			7.879			-1.576
232501.000			7.880			-1.576
232600.000			7.879			-1.576
232700.000			7.880			-1.576
232801.000			7.880			-1.576
232900.000			7.880			-1.576
233001.000			7.879			-1.576
233102.000			7.879			-1.576
233201.000			7.879			-1.576
233300.000			7.879			-1.576
233401.000			7.880			-1.576
233500.000			7.879			-1.576
233600.000			7.880			-1.576
233701.000			7.880			-1.576
233800.000			7.881			-1.576
233900.000			7.879			-1.576
234002.000			7.879			-1.576
234101.000			7.879			-1.576
234200.000			7.878			-1.576
234301.000			7.878			-1.576
234400.000			7.878			-1.576
234500.000			7.879			-1.576
234601.000			7.879			-1.576
234700.000			7.879			-1.576
234800.000			7.879			-1.576
234901.000			7.878			-1.576
235001.000			7.878			-1.576
235101.000			7.878			-1.576
235201.000			7.877			-1.575
235300.000			7.877			-1.575
235400.000			7.877			-1.575
235501.000			7.878			-1.576
235600.000			7.878			-1.576
235701.000			7.878			-1.576
235800.000			7.877			-1.575
235900.000			7.878			-1.576
236002.000			7.878			-1.576
236101.000			7.878			-1.576
236200.000			7.878			-1.576
236301.000			7.877			-1.575
236400.000			7.877			-1.575
236500.000			7.878			-1.576
236601.000			7.877			-1.575
236700.000			7.877			-1.575
236800.000			7.876			-1.575
236901.000			7.877			-1.575
237001.000			7.877			-1.575
237101.000			7.877			-1.575
237201.000			7.876			-1.575
237300.000			7.876			-1.575
237400.000			7.876			-1.575
237501.000			7.877			-1.575
237600.000			7.876			-1.575
237700.000			7.876			-1.575
237801.000			7.876			-1.575
237901.000			7.875			-1.575
238001.000			7.875			-1.575
238102.000			7.877			-1.575
238200.000			7.876			-1.575
238300.000			7.875			-1.575
238401.000			7.875			-1.575
238500.000			7.876			-1.575
238600.000			7.876			-1.575
238701.000			7.876			-1.575
238800.000			7.874			-1.575
238902.000			7.874			-1.575
239001.000			7.875			-1.575
239101.000			7.875			-1.575
239201.000			7.875			-1.575
239300.000			7.874			-1.575
239400.000			7.874			-1.575
239501.000			7.874			-1.575
239600.000			7.875			-1.575
239700.000			7.874			-1.575
239801.000			7.874			-1.575
239901.000			7.874			-1.575
240001.000			7.874			-1.575
240102.000			7.874			-1.575
240200.000			7.874			-1.575
240300.000			7.874			-1.575
240401.000			7.874			-1.575
240500.000			7.875			-1.575
240600.000			7.874			-1.575
240701.000			7.872			-1.574
240800.000			7.872			-1.574
240901.000			7.873			-1.575
241002.000			7.873			-1.575
241101.000			7.873			-1.575
241200.000			7.872			-1.574
241301.000			7.872			-1.574
241400.000			7.872			-1.574
241500.000			7.873			-1.575
241601.000			7.872			-1.574
241700.000			7.873			-1.575
241800.000			7.873			-1.575
241902.000			7.873			-1.575
242001.000			7.874			-1.575
242101.000			7.873			-1.575
242200.000			7.872			-1.574
242300.000			7.872			-1.574
242401.000			7.872			-1.574
242500.000			7.872			-1.574
242600.000			7.872			-1.574
242701.000			7.871			-1.574
242801.000			7.872			-1.574
242901.000			7.872			-1.574
243002.000			7.872			-1.574
243100.000			7.872			-1.574
243200.000			7.871			-1.574
243301.000			7.872			-1.574
243400.000			7.872			-1.574
243500.000			7.873			-1.575
243601.000			7.873			-1.575
243700.000			7.873			-1.575
243801.000			7.872			-1.574
243902.000			7.873			-1.575
244000.000			7.873			-1.575
244100.000			7.872			-1.574
244201.000			7.871			-1.574
244300.000			7.872			-1.574
244400.000			7.872			-1.574
244501.000			7.872			-1.574
244600.000			7.873			-1.575
244701.000			7.872			-1.574
244802.000			7.873			-1.575
244901.000			7.873			-1.575
245000.000			7.872			-1.574
245101.000			7.871			-1.574
245200.000			7.871			-1.574
245301.000			7.870			-1.574
245400.000			7.871			-1.574
245500.000			7.871			-1.574
245601.000			7.870			-1.574
245701.000			7.870			-1.574
245801.000			7.872			-1.574
245902.000			7.870			-1.574
246000.000			7.870			-1.574
246100.000			7.871			-1.574
246201.000			7.870			-1.574
246300.000			7.870			-1.574
246400.000			7.871			-1.574
246501.000			7.871			-1.574
246600.000			7.870			-1.574
246701.000			7.870			-1.574
246802.000			7.871			-1.574
246901.000			7.870			-1.574
247000.000			7.870			-1.574
247101.000			7.870			-1.574
247200.000			7.871			-1.574
247300.000			7.870			-1.574
247401.000			7.869			-1.574
247500.000			7.869			-1.574
247600.000			7.869			-1.574
247702.000			7.870			-1.574
247801.000			7.870			-1.574
247901.000			7.869			-1.574
248001.000			7.869			-1.574
248100.000			7.869			-1.574
248200.000			7.870			-1.574
248301.000			7.869			-1.574
248400.000			7.870			-1.574
248501.000			7.869			-1.574
248600.000			7.869			-1.574
248701.000			7.869			-1.574
248802.000			7.869			-1.574
248901.000			7.869			-1.574
249000.000			7.869			-1.574
249101.000			7.869			-1.574
249200.000			7.869			-1.574
249300.000			7.869			-1.574
249401.000			7.867			-1.573
249500.000			7.868			-1.574
249600.000			7.868			-1.574
249702.000			7.869			-1.574
249801.000			7.869			-1.574
249901.000			7.868			-1.574
250001.000			7.868			-1.574
250100.000			7.868			-1.574
250200.000			7.867			-1.573
250301.000			7.867			-1.573
250400.000			7.867			-1.573
250500.000			7.867			-1.573
250601.000			7.868			-1.574
250701.000			7.867			-1.573
250801.000			7.867			-1.573
250902.000			7.867			-1.573
251000.000			7.867			-1.573
251100.000			7.868			-1.574
251201.000			7.867			-1.573
251300.000			7.865			-1.573
251400.000			7.866			-1.573
251501.000			7.866			-1.573
251600.000			7.866			-1.573
251702.000			7.866			-1.573
251801.000			7.867			-1.573
251900.000			7.866			-1.573
252001.000			7.867			-1.573
252100.000			7.867			-1.573
252200.000			7.867			-1.573
252301.000			7.866			-1.573
252400.000			7.866			-1.573
252500.000			7.866			-1.573
252602.000			7.866			-1.573
252701.000			7.866			-1.573
252801.000			7.866			-1.573
252901.000			7.865			-1.573
253000.000			7.865			-1.573
253100.000			7.865			-1.573
253201.000			7.865			-1.573
253300.000			7.865			-1.573
253400.000			7.865			-1.573
253501.000			7.865			-1.573
253601.000			7.865			-1.573
253701.000			7.865			-1.573
253802.000			7.865			-1.573
253900.000			7.865			-1.573
254000.000			7.866			-1.573
254101.000			7.866			-1.573
254200.000			7.863			-1.573
254300.000			7.864			-1.573
254401.000			7.865			-1.573
254500.000			7.864			-1.573
254601.000			7.864			-1.573
254702.000			7.865			-1.573
254801.000			7.864			-1.573
254901.000			7.864			-1.573
255000.000			7.863			-1.573
255100.000			7.864			-1.573
255201.000			7.864			-1.573
255300.000			7.865			-1.573
255400.000			7.865			-1.573
255501.000			7.864			-1.573
255601.000			7.864			-1.573
255701.000			7.864			-1.573
255802.000			7.864			-1.573
255900.000			7.863			-1.573
256000.000			7.864			-1.573
256101.000			7.865			-1.573
256200.000			7.863			-1.573
256300.000			7.863			-1.573
256401.000			7.863			-1.573
256500.000			7.862			-1.572
256601.000			7.863			-1.573
256702.000			7.863			-1.573
256801.000			7.864			-1.573
256900.000			7.863			-1.573
257001.000			7.862			-1.572
257100.000			7.863			-1.573
257200.000			7.863			-1.573
257301.000			7.863			-1.573
257400.000			7.862			-1.572
257500.000			7.862			-1.572
257602.000			7.863			-1.573
257701.000			7.863			-1.573
257801.000			7.862			-1.572
257901.000			7.862			-1.572
258000.000			7.862			-1.572
258101.000			7.862			-1.572
258200.000			7.863			-1.573
258300.000			7.863			-1.573
258401.000			7.862			-1.572
258500.000			7.862			-1.572
258601.000			7.862			-1.572
258702.000			7.862			-1.572
258801.000			7.862			-1.572
258900.000			7.862			-1.572
259001.000			7.862			-1.572
259100.000			7.861			-1.572
259200.000			7.860			-1.572
259301.000			7.861			-1.572
259400.000			7.861			-1.572
259500.000			7.862			-1.572
259602.000			7.862			-1.572
259701.000			7.862			-1.572
259801.000			7.861			-1.572
259901.000			7.861			-1.572
260000.000			7.860			-1.572
260100.000			7.861			-1.572
260201.000			7.861			-1.572
260300.000			7.860			-1.572
260400.000			7.860			-1.572
260501.000			7.860			-1.572
260601.000			7.860			-1.572
260701.000			7.860			-1.572
260801.000			7.860			-1.572
260900.000			7.861			-1.572
261000.000			7.860			-1.572
261101.000			7.860			-1.572
261200.000			7.860			-1.572
261301.000			7.860			-1.572
261400.000			7.859			-1.572
261501.000			7.859			-1.572
261602.000			7.859			-1.572
261701.000			7.859			-1.572
261800.000			7.859			-1.572
261901.000			7.859			-1.572
262000.000			7.860			-1.572
262100.000			7.860			-1.572
262201.000			7.860			-1.572
262300.000			7.860			-1.572
262400.000			7.859			-1.572
262502.000			7.858			-1.572
262601.000			7.859			-1.572
262701.000			7.859			-1.572
262801.000			7.860			-1.572
262900.000			7.859			-1.572
263000.000			7.859			-1.572
263101.000			7.858			-1.572
263200.000			7.859			-1.572
263300.000			7.860			-1.572
263401.000			7.860			-1.572
263501.000			7.859			-1.572
263601.000			7.858			-1.572
263701.000			7.858			-1.572
263800.000			7.858			-1.572
263900.000			7.858			-1.572
264001.000			7.858			-1.572
264100.000			7.858			-1.572
264200.000			7.858			-1.572
264301.000			7.859			-1.572
264401.000			7.858			-1.572
264502.000			7.857			-1.571
264601.000			7.857			-1.571
264700.000			7.858			-1.572
264801.000			7.858			-1.572
264900.000			7.858			-1.572
265000.000			7.857			-1.571
265101.000			7.857			-1.571
265200.000			7.857			-1.571
265300.000			7.856			-1.571
265402.000			7.857			-1.571
265501.000			7.858			-1.572
265601.000			7.857			-1.571
265701.000			7.857			-1.571
265800.000			7.858			-1.572
265900.000			7.856			-1.571
266001.000			7.857			-1.571
266100.000			7.857			-1.571
266200.000			7.856			-1.571
266301.000			7.857			-1.571
266401.000			7.857			-1.571
266501.000			7.857			-1.571
266602.000			7.857			-1.571
266700.000			7.857			-1.571
266800.000			7.856			-1.571
266901.000			7.857			-1.571
267000.000			7.856			-1.571
267100.000			7.856			-1.571
267201.000			7.857			-1.571
267300.000			7.856			-1.571
267401.000			7.857			-1.571
267502.000			7.858			-1.572
267601.000			7.857			-1.571
267701.000			7.857			-1.571
267800.000			7.857			-1.571
267900.000			7.856			-1.571
268001.000			7.856			-1.571
268100.000			7.857			-1.571
268200.000			7.857			-1.571
268301.000			7.856			-1.571
268401.000			7.855			-1.571
268501.000			7.855			-1.571
268602.000			7.856			-1.571
268700.000			7.856			-1.571
268800.000			7.856			-1.571
268901.000			7.856			-1.571
269000.000			7.856			-1.571
269100.000			7.855			-1.571
269201.000			7.856			-1.571
269300.000			7.857			-1.571
269400.000			7.857			-1.571
269502.000			7.856			-1.571
269601.000			7.855			-1.571
269700.000			7.855			-1.571
269801.000			7.855			-1.571
269900.000			7.855			-1.571
270000.000			7.855			-1.571
270101.000			7.855			-1.571
270200.000			7.855			-1.571
270300.000			7.855			-1.571
270402.000			7.854			-1.571
270501.000			7.854			-1.571
270601.000			7.855			-1.571
270701.000			7.853			-1.571
270800.000			7.853			-1.571
270901.000			7.855			-1.571
271000.000			7.854			-1.571
271100.000			7.855			-1.571
271201.000			7.854			-1.571
271300.000			7.855			-1.571
271401.000			7.855			-1.571
271502.000			7.855			-1.571
271601.000			7.854			-1.571
271700.000			7.855			-1.571
271801.000			7.855			-1.571
271900.000			7.854			-1.571
272000.000			7.853			-1.571
272101.000			7.854			-1.571
272200.000			7.854			-1.571
272300.000			7.854			-1.571
272402.000			7.854			-1.571
272501.000			7.853			-1.571
272600.000			7.853			-1.571
272701.000			7.853			-1.571
272800.000			7.853			-1.571
272900.000			7.854			-1.571
273001.000			7.853			-1.571
273100.000			7.852			-1.570
273200.000			7.852			-1.570
273302.000			7.853			-1.571
273401.000			7.853			-1.571
273501.000			7.853			-1.571
273601.000			7.854			-1.571
273700.000			7.854			-1.571
273800.000			7.853			-1.571
273901.000			7.853			-1.571
274000.000			7.854			-1.571
274101.000			7.853			-1.571
274200.000			7.853			-1.571
274301.000			7.852			-1.570
274402.000			7.853			-1.571
274501.000			7.853			-1.571
274600.000			7.852			-1.570
274701.000			7.852			-1.570
274800.000			7.852			-1.570
274900.000			7.852			-1.570
275001.000			7.852			-1.570
275100.000			7.852			-1.570
275200.000			7.852			-1.570
275302.000			7.852			-1.570
275401.000			7.853			-1.571
275500.000			7.852			-1.570
275601.000			7.851			-1.570
275700.000			7.851			-1.570
275800.000			7.851			-1.570
275901.000			7.852			-1.570
276000.000			7.851			-1.570
276100.000			7.850			-1.570
276202.000			7.851			-1.570
276301.000			7.852			-1.570
276401.000			7.851			-1.570
276501.000			7.851			-1.570
276600.000			7.851			-1.570
276700.000			7.852			-1.570
276801.000			7.850			-1.570
276900.000			7.850			-1.570
277000.000			7.851			-1.570
277101.000			7.851			-1.570
277201.000			7.851			-1.570
277302.000			7.851			-1.570
277401.000			7.850			-1.570
277500.000			7.850			-1.570
277601.000			7.849			-1.570
277700.000			7.849			-1.570
277800.000			7.850			-1.570
277901.000			7.851			-1.570
278000.000			7.851			-1.570
278100.000			7.851			-1.570
278202.000			7.851			-1.570
278301.000			7.850			-1.570
278400.000			7.850			-1.570
278501.000			7.850			-1.570
278600.000			7.851			-1.570
278700.000			7.851			-1.570
278801.000			7.851			-1.570
278900.000			7.851			-1.570
279000.000			7.850			-1.570
279101.000			7.850			-1.570
279201.000			7.850			-1.570
279301.000			7.850			-1.570
279402.000			7.850			-1.570
279500.000			7.850			-1.570
279600.000			7.850			-1.570
279701.000			7.849			-1.570
279800.000			7.849			-1.570
279900.000			7.849			-1.570
280001.000			7.849			-1.570
280100.000			7.849			-1.570
280201.000			7.848			-1.570
280302.000			7.848			-1.570
280401.000			7.848			-1.570
280501.000			7.849			-1.570
280600.000			7.848			-1.570
280700.000			7.848			-1.570
280801.000			7.848			-1.570
280900.000			7.847			-1.569
281000.000			7.847			-1.569
281101.000			7.847			-1.569
281201.000			7.847			-1.569
281301.000			7.848			-1.570
281401.000			7.847			-1.569
281500.000			7.847			-1.569
281600.000			7.847			-1.569
281701.000			7.847			-1.569
281800.000			7.847			-1.569
281900.000			7.847			-1.569
282001.000			7.847			-1.569
282101.000			7.847			-1.569
282201.000			7.847			-1.569
282302.000			7.847			-1.569
282400.000			7.847			-1.569
282500.000			7.847			-1.569
282601.000			7.846			-1.569
282700.000			7.846			-1.569
282800.000			7.847			-1.569
282901.000			7.847			-1.569
283000.000			7.846			-1.569
283101.000			7.846			-1.569
283202.000			7.846			-1.569
283301.000			7.846			-1.569
283400.000			7.847			-1.569
283501.000			7.846			-1.569
283600.000			7.845			-1.569
283701.000			7.845			-1.569
283800.000			7.844			-1.569
283900.000			7.845			-1.569
284001.000			7.846			-1.569
284101.000			7.846			-1.569
284201.000			7.845			-1.569
284301.000			7.845			-1.569
284400.000			7.845			-1.569
284500.000			7.845			-1.569
284601.000			7.845			-1.569
284700.000			7.845			-1.569
284800.000			7.845			-1.569
284901.000			7.845			-1.569
285000.000			7.845			-1.569
285101.000			7.845			-1.569
285202.000			7.845			-1.569
285300.000			7.845			-1.569
285400.000			7.845			-1.569
285501.000			7.845			-1.569
285600.000			7.845			-1.569
285700.000			7.844			-1.569
285801.000			7.845			-1.569
285900.000			7.845			-1.569
286000.000			7.844			-1.569
286102.000			7.844			-1.569
286201.000			7.845			-1.569
286300.000			7.844			-1.569
286401.000			7.846			-1.569
286500.000			7.845			-1.569
286600.000			7.845			-1.569
286701.000			7.844			-1.569
286800.000			7.844			-1.569
286901.000			7.844			-1.569
287000.000			7.844			-1.569
287101.000			7.844			-1.569
287202.000			7.844			-1.569
287300.000			7.843			-1.569
287400.000			7.843			-1.569
287501.000			7.843			-1.569
287600.000			7.843			-1.569
287700.000			7.843			-1.569
287801.000			7.843			-1.569
287900.000			7.843			-1.569
288000.000			7.843			-1.569
288102.000			7.843			-1.569
288201.000			7.843			-1.569
288300.000			7.843			-1.569
288401.000			7.842			-1.568
288500.000			7.842			-1.568
288600.000			7.842			-1.568
288701.000			7.842			-1.568
288800.000			7.842			-1.568
288900.000			7.842			-1.568
289002.000			7.843			-1.569
289101.000			7.842			-1.568
289201.000			7.842			-1.568
289301.000			7.842			-1.568
289400.000			7.842			-1.568
289500.000			7.841			-1.568
289601.000			7.843			-1.569
289700.000			7.842			-1.568
289800.000			7.841			-1.568
289901.000			7.841			-1.568
290001.000			7.841			-1.568
290102.000			7.842			-1.568
290201.000			7.842			-1.568
290300.000			7.842			-1.568
290401.000			7.841			-1.568
290500.000			7.841			-1.568
290600.000			7.841			-1.568
290701.000			7.842			-1.568
290800.000			7.842			-1.568
290900.000			7.842			-1.568
291002.000			7.842			-1.568
291101.000			7.842			-1.568
291200.000			7.842			-1.568
291301.000			7.841			-1.568
291400.000			7.841			-1.568
291500.000			7.841			-1.568
291601.000			7.841			-1.568
291700.000			7.841			-1.568
291800.000			7.842			-1.568
291902.000			7.841			-1.568
292001.000			7.843			-1.569
292101.000			7.843			-1.569
292201.000			7.842			-1.568
292300.000			7.840			-1.568
292400.000			7.840			-1.568
292501.000			7.841			-1.568
292600.000			7.840			-1.568
292700.000			7.840			-1.568
292801.000			7.840			-1.568
292901.000			7.840			-1.568
293001.000			7.840			-1.568
293101.000			7.841			-1.568
293200.000			7.841			-1.568
293301.000			7.841			-1.568
293400.000			7.840			-1.568
293500.000			7.840			-1.568
293601.000			7.840			-1.568
293700.000			7.840			-1.568
293800.000			7.840			-1.568
293902.000			7.839			-1.568
294001.000			7.839			-1.568
294100.000			7.839			-1.568
294201.000			7.840			-1.568
294300.000			7.840			-1.568
294400.000			7.839			-1.568
294501.000			7.840			-1.568
294600.000			7.839			-1.568
294700.000			7.838			-1.568
294802.000			7.839			-1.568
294901.000			7.839			-1.568
295001.000			7.839			-1.568
295101.000			7.839			-1.568
295200.000			7.838			-1.568
295300.000			7.838			-1.568
295401.000			7.840			-1.568
295500.000			7.839			-1.568
295600.000			7.839			-1.568
295701.000			7.838			-1.568
295801.000			7.839			-1.568
295901.000			7.838			-1.568
296002.000			7.837			-1.567
296100.000			7.839			-1.568
296200.000			7.839			-1.568
296301.000			7.839			-1.568
296400.000			7.838			-1.568
296501.000			7.839			-1.568
296600.000			7.838			-1.568
296700.000			7.837			-1.567
296802.000			7.838			-1.568
296901.000			7.839			-1.568
297001.000			7.839			-1.568
297101.000			7.838			-1.568
297200.000			7.838			-1.568
297300.000			7.838			-1.568
297401.000			7.838			-1.568
297500.000			7.838			-1.568
297600.000			7.838			-1.568
297701.000			7.837			-1.567
297801.000			7.837			-1.567
297901.000			7.838			-1.568
298002.000			7.840			-1.568
298100.000			7.839			-1.568
298200.000			7.839			-1.568
298301.000			7.839			-1.568
298400.000			7.839			-1.568
298500.000			7.839			-1.568
298601.000			7.839			-1.568
298700.000			7.839			-1.568
298800.000			7.839			-1.568
298902.000			7.840			-1.568
299001.000			7.841			-1.568
299100.000			7.840			-1.568
299201.000			7.839			-1.568
299300.000			7.840			-1.568
299400.000			7.839			-1.568
299501.000			7.838			-1.568
299600.000			7.839			-1.568
299701.000			7.838			-1.568
299800.000			7.838			-1.568
299901.000			7.838			-1.568
