# Acquired on 10/01/2024 16:09:37 
# SPIDER: Creep_-7mm_07714532C-1
# CREEP MEASUREMENT

# time [ms]		force [N]		stiffness [N/mm]
0.000			10.481			-1.497
100.000			11.082			-1.583
201.000			11.323			-1.618
302.000			11.330			-1.619
400.000			11.224			-1.603
500.000			11.184			-1.598
601.000			11.150			-1.593
700.000			11.124			-1.589
800.000			11.102			-1.586
902.000			11.079			-1.583
1001.000			11.057			-1.580
1100.000			11.040			-1.577
1201.000			11.007			-1.572
1300.000			10.993			-1.570
1401.000			10.978			-1.568
1500.000			10.967			-1.567
1601.000			10.955			-1.565
1702.000			10.943			-1.563
1800.000			10.932			-1.562
1900.000			10.911			-1.559
2001.000			10.902			-1.557
2100.000			10.893			-1.556
2200.000			10.884			-1.555
2301.000			10.875			-1.554
2401.000			10.867			-1.552
2501.000			10.859			-1.551
2601.000			10.846			-1.549
2700.000			10.838			-1.548
2800.000			10.831			-1.547
2901.000			10.825			-1.546
3000.000			10.818			-1.545
3101.000			10.811			-1.544
3202.000			10.806			-1.544
3300.000			10.794			-1.542
3400.000			10.788			-1.541
3501.000			10.782			-1.540
3600.000			10.777			-1.540
3700.000			10.772			-1.539
3801.000			10.767			-1.538
3901.000			10.762			-1.537
4001.000			10.757			-1.537
4101.000			10.748			-1.535
4200.000			10.741			-1.534
4300.000			10.737			-1.534
4401.000			10.734			-1.533
4500.000			10.731			-1.533
4602.000			10.726			-1.532
4701.000			10.721			-1.532
4800.000			10.713			-1.530
4901.000			10.708			-1.530
5000.000			10.705			-1.529
5100.000			10.701			-1.529
5201.000			10.697			-1.528
5300.000			10.693			-1.528
5401.000			10.690			-1.527
5502.000			10.683			-1.526
5600.000			10.679			-1.526
5700.000			10.676			-1.525
5801.000			10.673			-1.525
5900.000			10.670			-1.524
6000.000			10.666			-1.524
6101.000			10.662			-1.523
6201.000			10.660			-1.523
6301.000			10.654			-1.522
6401.000			10.651			-1.522
6500.000			10.648			-1.521
6600.000			10.645			-1.521
6701.000			10.643			-1.520
6800.000			10.640			-1.520
6901.000			10.637			-1.520
7002.000			10.631			-1.519
7100.000			10.628			-1.518
7200.000			10.625			-1.518
7301.000			10.623			-1.518
7400.000			10.621			-1.517
7500.000			10.617			-1.517
7601.000			10.615			-1.516
7701.000			10.609			-1.516
7802.000			10.606			-1.515
7900.000			10.605			-1.515
8000.000			10.603			-1.515
8101.000			10.599			-1.514
8200.000			10.598			-1.514
8300.000			10.595			-1.514
8402.000			10.589			-1.513
8501.000			10.587			-1.512
8600.000			10.585			-1.512
8701.000			10.583			-1.512
8800.000			10.581			-1.512
8900.000			10.580			-1.511
9001.000			10.576			-1.511
9100.000			10.573			-1.510
9201.000			10.569			-1.510
9302.000			10.568			-1.510
9400.000			10.566			-1.509
9500.000			10.565			-1.509
9601.000			10.563			-1.509
9700.000			10.561			-1.509
9800.000			10.559			-1.508
9901.000			10.554			-1.508
10001.000			10.553			-1.508
10101.000			10.551			-1.507
10201.000			10.548			-1.507
10300.000			10.546			-1.507
10400.000			10.544			-1.506
10501.000			10.543			-1.506
10600.000			10.539			-1.506
10700.000			10.537			-1.505
10802.000			10.536			-1.505
10901.000			10.535			-1.505
11001.000			10.531			-1.504
11100.000			10.531			-1.504
11200.000			10.530			-1.504
11301.000			10.525			-1.504
11400.000			10.524			-1.503
11501.000			10.521			-1.503
11602.000			10.520			-1.503
11700.000			10.519			-1.503
11800.000			10.517			-1.502
11901.000			10.515			-1.502
12000.000			10.514			-1.502
12100.000			10.509			-1.501
12201.000			10.508			-1.501
12301.000			10.507			-1.501
12401.000			10.505			-1.501
12501.000			10.505			-1.501
12600.000			10.503			-1.500
12700.000			10.501			-1.500
12801.000			10.496			-1.499
12900.000			10.495			-1.499
13000.000			10.494			-1.499
13102.000			10.493			-1.499
13201.000			10.491			-1.499
13300.000			10.490			-1.499
13401.000			10.488			-1.498
13500.000			10.485			-1.498
13600.000			10.485			-1.498
13701.000			10.484			-1.498
13801.000			10.482			-1.497
13901.000			10.481			-1.497
14001.000			10.480			-1.497
14100.000			10.478			-1.497
14201.000			10.475			-1.496
14300.000			10.474			-1.496
14400.000			10.472			-1.496
14501.000			10.470			-1.496
14601.000			10.469			-1.496
14701.000			10.469			-1.496
14802.000			10.468			-1.495
14900.000			10.466			-1.495
15000.000			10.464			-1.495
15101.000			10.462			-1.495
15200.000			10.461			-1.494
15300.000			10.458			-1.494
15402.000			10.457			-1.494
15501.000			10.456			-1.494
15601.000			10.455			-1.494
15701.000			10.452			-1.493
15800.000			10.451			-1.493
15900.000			10.451			-1.493
16001.000			10.450			-1.493
16100.000			10.449			-1.493
16201.000			10.446			-1.492
16302.000			10.445			-1.492
16400.000			10.442			-1.492
16500.000			10.441			-1.492
16601.000			10.440			-1.491
16700.000			10.439			-1.491
16800.000			10.438			-1.491
16901.000			10.438			-1.491
17001.000			10.437			-1.491
17101.000			10.434			-1.491
17201.000			10.432			-1.490
17300.000			10.430			-1.490
17401.000			10.429			-1.490
17500.000			10.429			-1.490
17600.000			10.428			-1.490
17701.000			10.427			-1.490
17801.000			10.426			-1.489
17901.000			10.424			-1.489
18001.000			10.423			-1.489
18100.000			10.422			-1.489
18200.000			10.420			-1.489
18301.000			10.420			-1.489
18400.000			10.418			-1.488
18500.000			10.417			-1.488
18602.000			10.415			-1.488
18701.000			10.412			-1.487
18800.000			10.412			-1.487
18901.000			10.412			-1.487
19000.000			10.410			-1.487
19100.000			10.410			-1.487
19201.000			10.409			-1.487
19301.000			10.405			-1.486
19401.000			10.405			-1.486
19501.000			10.404			-1.486
19600.000			10.404			-1.486
19700.000			10.403			-1.486
19801.000			10.402			-1.486
19900.000			10.400			-1.486
20000.000			10.399			-1.486
20102.000			10.398			-1.485
20201.000			10.397			-1.485
20300.000			10.396			-1.485
20401.000			10.395			-1.485
20500.000			10.394			-1.485
20601.000			10.393			-1.485
20700.000			10.393			-1.485
20800.000			10.390			-1.484
20902.000			10.389			-1.484
21001.000			10.388			-1.484
21100.000			10.388			-1.484
21201.000			10.387			-1.484
21300.000			10.386			-1.484
21400.000			10.386			-1.484
21501.000			10.383			-1.483
21600.000			10.382			-1.483
21701.000			10.381			-1.483
21802.000			10.381			-1.483
21900.000			10.380			-1.483
22000.000			10.379			-1.483
22101.000			10.378			-1.483
22200.000			10.375			-1.482
22300.000			10.376			-1.482
22402.000			10.375			-1.482
22501.000			10.373			-1.482
22600.000			10.373			-1.482
22701.000			10.373			-1.482
22800.000			10.372			-1.482
22900.000			10.371			-1.482
23001.000			10.368			-1.481
23100.000			10.368			-1.481
23201.000			10.367			-1.481
23302.000			10.367			-1.481
23400.000			10.366			-1.481
23500.000			10.364			-1.481
23601.000			10.365			-1.481
23700.000			10.362			-1.480
23801.000			10.361			-1.480
23900.000			10.361			-1.480
24001.000			10.361			-1.480
24102.000			10.359			-1.480
24200.000			10.358			-1.480
24300.000			10.358			-1.480
24401.000			10.356			-1.479
24500.000			10.355			-1.479
24600.000			10.355			-1.479
24701.000			10.353			-1.479
24801.000			10.352			-1.479
24901.000			10.352			-1.479
25001.000			10.352			-1.479
25100.000			10.350			-1.479
25200.000			10.348			-1.478
25301.000			10.348			-1.478
25400.000			10.347			-1.478
25500.000			10.346			-1.478
25602.000			10.346			-1.478
25701.000			10.346			-1.478
25800.000			10.344			-1.478
25901.000			10.343			-1.478
26000.000			10.343			-1.478
26100.000			10.342			-1.477
26201.000			10.341			-1.477
26300.000			10.340			-1.477
26401.000			10.338			-1.477
26502.000			10.337			-1.477
26600.000			10.337			-1.477
26700.000			10.336			-1.477
26801.000			10.335			-1.476
26900.000			10.334			-1.476
27001.000			10.333			-1.476
27100.000			10.333			-1.476
27201.000			10.333			-1.476
27302.000			10.331			-1.476
27400.000			10.330			-1.476
27500.000			10.329			-1.476
27601.000			10.329			-1.476
27700.000			10.328			-1.475
27800.000			10.328			-1.475
27902.000			10.327			-1.475
28001.000			10.326			-1.475
28101.000			10.324			-1.475
28201.000			10.324			-1.475
28300.000			10.323			-1.475
28400.000			10.323			-1.475
28501.000			10.324			-1.475
28600.000			10.322			-1.475
28701.000			10.320			-1.474
28802.000			10.320			-1.474
28900.000			10.319			-1.474
29000.000			10.318			-1.474
29101.000			10.318			-1.474
29200.000			10.317			-1.474
29300.000			10.316			-1.474
29401.000			10.317			-1.474
29501.000			10.314			-1.473
29601.000			10.313			-1.473
29701.000			10.314			-1.473
29800.000			10.313			-1.473
29900.000			10.312			-1.473
30001.000			10.311			-1.473
30100.000			10.310			-1.473
30201.000			10.310			-1.473
30301.000			10.308			-1.473
30401.000			10.308			-1.473
30501.000			10.308			-1.473
30600.000			10.306			-1.472
30700.000			10.306			-1.472
30801.000			10.306			-1.472
30900.000			10.305			-1.472
31001.000			10.304			-1.472
31102.000			10.303			-1.472
31200.000			10.302			-1.472
31300.000			10.301			-1.472
31401.000			10.301			-1.472
31500.000			10.301			-1.472
31600.000			10.300			-1.471
31701.000			10.299			-1.471
31801.000			10.298			-1.471
31901.000			10.297			-1.471
32001.000			10.297			-1.471
32100.000			10.296			-1.471
32200.000			10.296			-1.471
32301.000			10.296			-1.471
32400.000			10.295			-1.471
32500.000			10.293			-1.470
32602.000			10.292			-1.470
32701.000			10.291			-1.470
32800.000			10.292			-1.470
32901.000			10.291			-1.470
33000.000			10.291			-1.470
33100.000			10.290			-1.470
33201.000			10.290			-1.470
33301.000			10.289			-1.470
33402.000			10.288			-1.470
33501.000			10.288			-1.470
33600.000			10.287			-1.470
33701.000			10.286			-1.469
33800.000			10.285			-1.469
33900.000			10.285			-1.469
34001.000			10.285			-1.469
34101.000			10.283			-1.469
34201.000			10.283			-1.469
34301.000			10.282			-1.469
34400.000			10.282			-1.469
34500.000			10.280			-1.469
34601.000			10.279			-1.468
34700.000			10.279			-1.468
34800.000			10.279			-1.468
34902.000			10.278			-1.468
35001.000			10.277			-1.468
35100.000			10.277			-1.468
35201.000			10.277			-1.468
35300.000			10.275			-1.468
35400.000			10.275			-1.468
35501.000			10.274			-1.468
35600.000			10.273			-1.468
35701.000			10.271			-1.467
35802.000			10.271			-1.467
35900.000			10.271			-1.467
36000.000			10.270			-1.467
36101.000			10.269			-1.467
36200.000			10.270			-1.467
36300.000			10.270			-1.467
36401.000			10.269			-1.467
36501.000			10.268			-1.467
36602.000			10.267			-1.467
36700.000			10.266			-1.467
36800.000			10.265			-1.466
36901.000			10.264			-1.466
37000.000			10.265			-1.466
37100.000			10.264			-1.466
37201.000			10.264			-1.466
37301.000			10.263			-1.466
37401.000			10.261			-1.466
37501.000			10.261			-1.466
37600.000			10.261			-1.466
37700.000			10.260			-1.466
37801.000			10.259			-1.466
37900.000			10.259			-1.466
38001.000			10.258			-1.465
38102.000			10.259			-1.466
38201.000			10.258			-1.465
38300.000			10.257			-1.465
38401.000			10.256			-1.465
38500.000			10.256			-1.465
38600.000			10.255			-1.465
38701.000			10.254			-1.465
38800.000			10.253			-1.465
38901.000			10.253			-1.465
39002.000			10.252			-1.465
39100.000			10.252			-1.465
39200.000			10.251			-1.464
39301.000			10.251			-1.464
39400.000			10.249			-1.464
39500.000			10.249			-1.464
39602.000			10.249			-1.464
39701.000			10.248			-1.464
39802.000			10.247			-1.464
39900.000			10.247			-1.464
40000.000			10.246			-1.464
40101.000			10.246			-1.464
40200.000			10.245			-1.464
40300.000			10.245			-1.464
40402.000			10.245			-1.464
40501.000			10.243			-1.463
40600.000			10.242			-1.463
40701.000			10.242			-1.463
40800.000			10.242			-1.463
40900.000			10.242			-1.463
41001.000			10.241			-1.463
41100.000			10.241			-1.463
41201.000			10.240			-1.463
41302.000			10.238			-1.463
41400.000			10.238			-1.463
41500.000			10.238			-1.463
41601.000			10.237			-1.462
41700.000			10.237			-1.462
41800.000			10.236			-1.462
41901.000			10.235			-1.462
42001.000			10.235			-1.462
42100.000			10.234			-1.462
42201.000			10.233			-1.462
42300.000			10.232			-1.462
42400.000			10.231			-1.462
42501.000			10.232			-1.462
42600.000			10.231			-1.462
42701.000			10.230			-1.461
42802.000			10.231			-1.462
42900.000			10.230			-1.461
43001.000			10.229			-1.461
43100.000			10.228			-1.461
43200.000			10.228			-1.461
43301.000			10.228			-1.461
43400.000			10.227			-1.461
43501.000			10.226			-1.461
43602.000			10.226			-1.461
43700.000			10.226			-1.461
43800.000			10.225			-1.461
43901.000			10.224			-1.461
44000.000			10.224			-1.461
44100.000			10.224			-1.461
44202.000			10.223			-1.460
44301.000			10.223			-1.460
44401.000			10.223			-1.460
44501.000			10.222			-1.460
44600.000			10.222			-1.460
44700.000			10.221			-1.460
44801.000			10.220			-1.460
44900.000			10.219			-1.460
45001.000			10.219			-1.460
45102.000			10.219			-1.460
45200.000			10.219			-1.460
45300.000			10.218			-1.460
45401.000			10.217			-1.460
45500.000			10.217			-1.460
45600.000			10.216			-1.459
45701.000			10.215			-1.459
45801.000			10.215			-1.459
45901.000			10.214			-1.459
46001.000			10.214			-1.459
46100.000			10.212			-1.459
46201.000			10.212			-1.459
46300.000			10.213			-1.459
46400.000			10.213			-1.459
46501.000			10.212			-1.459
46601.000			10.212			-1.459
46701.000			10.211			-1.459
46801.000			10.210			-1.459
46900.000			10.209			-1.458
47000.000			10.209			-1.458
47101.000			10.208			-1.458
47200.000			10.208			-1.458
47301.000			10.208			-1.458
47402.000			10.208			-1.458
47500.000			10.207			-1.458
47600.000			10.206			-1.458
47701.000			10.205			-1.458
47800.000			10.205			-1.458
47900.000			10.205			-1.458
48001.000			10.205			-1.458
48101.000			10.204			-1.458
48201.000			10.203			-1.458
48301.000			10.202			-1.457
48400.000			10.201			-1.457
48500.000			10.201			-1.457
48601.000			10.201			-1.457
48700.000			10.200			-1.457
48800.000			10.200			-1.457
48902.000			10.199			-1.457
49001.000			10.199			-1.457
49100.000			10.199			-1.457
49201.000			10.200			-1.457
49300.000			10.199			-1.457
49401.000			10.198			-1.457
49500.000			10.198			-1.457
49600.000			10.197			-1.457
49702.000			10.196			-1.457
49801.000			10.195			-1.456
49900.000			10.195			-1.456
50001.000			10.195			-1.456
50100.000			10.194			-1.456
50200.000			10.194			-1.456
50301.000			10.193			-1.456
50400.000			10.192			-1.456
50501.000			10.193			-1.456
50602.000			10.192			-1.456
50700.000			10.192			-1.456
50800.000			10.191			-1.456
50901.000			10.191			-1.456
51000.000			10.191			-1.456
51100.000			10.189			-1.456
51202.000			10.189			-1.456
51301.000			10.188			-1.455
51400.000			10.188			-1.455
51501.000			10.189			-1.456
51600.000			10.188			-1.455
51700.000			10.186			-1.455
51801.000			10.187			-1.455
51900.000			10.185			-1.455
52001.000			10.184			-1.455
52102.000			10.185			-1.455
52200.000			10.185			-1.455
52300.000			10.184			-1.455
52401.000			10.184			-1.455
52500.000			10.184			-1.455
52601.000			10.184			-1.455
52700.000			10.183			-1.455
52801.000			10.182			-1.455
52902.000			10.182			-1.455
53000.000			10.182			-1.455
53100.000			10.181			-1.454
53201.000			10.181			-1.454
53300.000			10.181			-1.454
53400.000			10.181			-1.454
53501.000			10.180			-1.454
53601.000			10.179			-1.454
53701.000			10.179			-1.454
53801.000			10.179			-1.454
53900.000			10.178			-1.454
54000.000			10.178			-1.454
54101.000			10.176			-1.454
54200.000			10.176			-1.454
54300.000			10.176			-1.454
54402.000			10.175			-1.454
54501.000			10.175			-1.454
54600.000			10.175			-1.454
54701.000			10.175			-1.454
54800.000			10.174			-1.453
54900.000			10.173			-1.453
55001.000			10.173			-1.453
55100.000			10.173			-1.453
55201.000			10.173			-1.453
55302.000			10.172			-1.453
55400.000			10.171			-1.453
55500.000			10.170			-1.453
55601.000			10.170			-1.453
55700.000			10.170			-1.453
55801.000			10.170			-1.453
55901.000			10.169			-1.453
56001.000			10.169			-1.453
56102.000			10.169			-1.453
56200.000			10.168			-1.453
56300.000			10.168			-1.453
56401.000			10.167			-1.452
56500.000			10.167			-1.452
56600.000			10.166			-1.452
56702.000			10.166			-1.452
56801.000			10.165			-1.452
56901.000			10.166			-1.452
57001.000			10.164			-1.452
57100.000			10.165			-1.452
57200.000			10.165			-1.452
57301.000			10.164			-1.452
57400.000			10.164			-1.452
57501.000			10.164			-1.452
57602.000			10.162			-1.452
57701.000			10.162			-1.452
57800.000			10.161			-1.452
57901.000			10.161			-1.452
58000.000			10.161			-1.452
58100.000			10.161			-1.452
58201.000			10.160			-1.451
58301.000			10.160			-1.451
58401.000			10.160			-1.451
58501.000			10.159			-1.451
58600.000			10.159			-1.451
58700.000			10.159			-1.451
58801.000			10.158			-1.451
58900.000			10.158			-1.451
59001.000			10.158			-1.451
59101.000			10.157			-1.451
59201.000			10.156			-1.451
59301.000			10.156			-1.451
59400.000			10.156			-1.451
59500.000			10.156			-1.451
59601.000			10.156			-1.451
59700.000			10.155			-1.451
59800.000			10.155			-1.451
59902.000			10.153			-1.450
60001.000			10.154			-1.451
60100.000			10.154			-1.451
60201.000			10.153			-1.450
60300.000			10.152			-1.450
60400.000			10.152			-1.450
60501.000			10.152			-1.450
60600.000			10.152			-1.450
60701.000			10.151			-1.450
60802.000			10.150			-1.450
60900.000			10.151			-1.450
61000.000			10.150			-1.450
61101.000			10.149			-1.450
61200.000			10.149			-1.450
61300.000			10.149			-1.450
61402.000			10.148			-1.450
61501.000			10.148			-1.450
61600.000			10.148			-1.450
61701.000			10.148			-1.450
61800.000			10.147			-1.450
61900.000			10.146			-1.449
62001.000			10.146			-1.449
62100.000			10.146			-1.449
62202.000			10.146			-1.449
62301.000			10.145			-1.449
62400.000			10.144			-1.449
62501.000			10.144			-1.449
62600.000			10.144			-1.449
62700.000			10.144			-1.449
62801.000			10.143			-1.449
62900.000			10.143			-1.449
63001.000			10.142			-1.449
63102.000			10.141			-1.449
63200.000			10.141			-1.449
63300.000			10.142			-1.449
63401.000			10.142			-1.449
63500.000			10.141			-1.449
63600.000			10.140			-1.449
63701.000			10.140			-1.449
63801.000			10.140			-1.449
63901.000			10.138			-1.448
64001.000			10.138			-1.448
64100.000			10.138			-1.448
64200.000			10.138			-1.448
64301.000			10.137			-1.448
64400.000			10.138			-1.448
64501.000			10.138			-1.448
64602.000			10.137			-1.448
64700.000			10.136			-1.448
64800.000			10.136			-1.448
64901.000			10.135			-1.448
65000.000			10.134			-1.448
65100.000			10.135			-1.448
65201.000			10.135			-1.448
65301.000			10.135			-1.448
65402.000			10.134			-1.448
65500.000			10.133			-1.448
65600.000			10.133			-1.448
65701.000			10.133			-1.448
65800.000			10.133			-1.448
65900.000			10.133			-1.448
66001.000			10.132			-1.447
66101.000			10.132			-1.447
66201.000			10.131			-1.447
66301.000			10.131			-1.447
66400.000			10.130			-1.447
66500.000			10.131			-1.447
66601.000			10.131			-1.447
66700.000			10.130			-1.447
66800.000			10.129			-1.447
66902.000			10.129			-1.447
67001.000			10.129			-1.447
67100.000			10.129			-1.447
67201.000			10.128			-1.447
67300.000			10.128			-1.447
67400.000			10.127			-1.447
67501.000			10.127			-1.447
67600.000			10.127			-1.447
67701.000			10.127			-1.447
67802.000			10.125			-1.446
67900.000			10.125			-1.446
68000.000			10.125			-1.446
68101.000			10.126			-1.447
68200.000			10.125			-1.446
68300.000			10.125			-1.446
68401.000			10.125			-1.446
68501.000			10.124			-1.446
68602.000			10.123			-1.446
68700.000			10.122			-1.446
68800.000			10.122			-1.446
68901.000			10.122			-1.446
69000.000			10.121			-1.446
69100.000			10.122			-1.446
69201.000			10.123			-1.446
69301.000			10.120			-1.446
69401.000			10.121			-1.446
69501.000			10.119			-1.446
69600.000			10.119			-1.446
69700.000			10.119			-1.446
69801.000			10.120			-1.446
69900.000			10.120			-1.446
70000.000			10.118			-1.445
70102.000			10.118			-1.445
70201.000			10.118			-1.445
70300.000			10.118			-1.445
70401.000			10.118			-1.445
70500.000			10.117			-1.445
70600.000			10.116			-1.445
70701.000			10.116			-1.445
70801.000			10.115			-1.445
70901.000			10.115			-1.445
71001.000			10.115			-1.445
71100.000			10.115			-1.445
71200.000			10.114			-1.445
71301.000			10.114			-1.445
71400.000			10.115			-1.445
71500.000			10.114			-1.445
71602.000			10.113			-1.445
71701.000			10.112			-1.445
71801.000			10.112			-1.445
71900.000			10.112			-1.445
72000.000			10.112			-1.445
72101.000			10.112			-1.445
72200.000			10.112			-1.445
72300.000			10.112			-1.445
72402.000			10.112			-1.445
72501.000			10.111			-1.444
72600.000			10.110			-1.444
72701.000			10.111			-1.444
72800.000			10.111			-1.444
72900.000			10.110			-1.444
73001.000			10.108			-1.444
73101.000			10.107			-1.444
73201.000			10.108			-1.444
73301.000			10.109			-1.444
73400.000			10.109			-1.444
73500.000			10.108			-1.444
73601.000			10.107			-1.444
73700.000			10.106			-1.444
73800.000			10.106			-1.444
73902.000			10.107			-1.444
74001.000			10.106			-1.444
74100.000			10.105			-1.444
74201.000			10.106			-1.444
74300.000			10.105			-1.444
74400.000			10.104			-1.443
74501.000			10.105			-1.444
74600.000			10.105			-1.444
74701.000			10.105			-1.444
74802.000			10.104			-1.443
74900.000			10.102			-1.443
75001.000			10.102			-1.443
75100.000			10.102			-1.443
75200.000			10.102			-1.443
75301.000			10.102			-1.443
75400.000			10.102			-1.443
75501.000			10.102			-1.443
75601.000			10.102			-1.443
75700.000			10.101			-1.443
75800.000			10.101			-1.443
75901.000			10.100			-1.443
76000.000			10.099			-1.443
76100.000			10.100			-1.443
76201.000			10.099			-1.443
76301.000			10.099			-1.443
76401.000			10.099			-1.443
76501.000			10.097			-1.442
76600.000			10.098			-1.443
76700.000			10.098			-1.443
76801.000			10.098			-1.443
76900.000			10.098			-1.443
77000.000			10.097			-1.442
77102.000			10.097			-1.442
77201.000			10.097			-1.442
77300.000			10.096			-1.442
77401.000			10.095			-1.442
77500.000			10.095			-1.442
77600.000			10.096			-1.442
77701.000			10.095			-1.442
77800.000			10.095			-1.442
77901.000			10.095			-1.442
78002.000			10.094			-1.442
78100.000			10.093			-1.442
78201.000			10.092			-1.442
78300.000			10.093			-1.442
78400.000			10.093			-1.442
78501.000			10.092			-1.442
78600.000			10.092			-1.442
78701.000			10.092			-1.442
78802.000			10.091			-1.442
78900.000			10.090			-1.441
79000.000			10.090			-1.441
79101.000			10.090			-1.441
79200.000			10.090			-1.441
79300.000			10.091			-1.442
79401.000			10.089			-1.441
79501.000			10.090			-1.441
79601.000			10.089			-1.441
79701.000			10.089			-1.441
79800.000			10.088			-1.441
79900.000			10.088			-1.441
80001.000			10.087			-1.441
80100.000			10.088			-1.441
80200.000			10.088			-1.441
80302.000			10.087			-1.441
80401.000			10.087			-1.441
80500.000			10.087			-1.441
80601.000			10.087			-1.441
80700.000			10.086			-1.441
80800.000			10.085			-1.441
80901.000			10.084			-1.441
81000.000			10.085			-1.441
81101.000			10.085			-1.441
81202.000			10.085			-1.441
81300.000			10.084			-1.441
81401.000			10.084			-1.441
81500.000			10.084			-1.441
81600.000			10.085			-1.441
81701.000			10.084			-1.441
81800.000			10.083			-1.440
81901.000			10.084			-1.441
82002.000			10.083			-1.440
82100.000			10.082			-1.440
82200.000			10.082			-1.440
82301.000			10.082			-1.440
82400.000			10.081			-1.440
82500.000			10.081			-1.440
82601.000			10.081			-1.440
82701.000			10.082			-1.440
82801.000			10.081			-1.440
82901.000			10.079			-1.440
83000.000			10.079			-1.440
83100.000			10.079			-1.440
83201.000			10.079			-1.440
83300.000			10.079			-1.440
83400.000			10.079			-1.440
83502.000			10.079			-1.440
83601.000			10.079			-1.440
83700.000			10.078			-1.440
83801.000			10.077			-1.440
83900.000			10.077			-1.440
84000.000			10.078			-1.440
84101.000			10.077			-1.440
84200.000			10.077			-1.440
84301.000			10.077			-1.440
84402.000			10.076			-1.439
84500.000			10.077			-1.440
84601.000			10.076			-1.439
84700.000			10.075			-1.439
84800.000			10.074			-1.439
84901.000			10.074			-1.439
85000.000			10.074			-1.439
85101.000			10.074			-1.439
85202.000			10.073			-1.439
85300.000			10.074			-1.439
85400.000			10.073			-1.439
85501.000			10.072			-1.439
85600.000			10.072			-1.439
85700.000			10.070			-1.439
85801.000			10.071			-1.439
85901.000			10.072			-1.439
86001.000			10.072			-1.439
86101.000			10.072			-1.439
86200.000			10.071			-1.439
86300.000			10.071			-1.439
86401.000			10.070			-1.439
86500.000			10.070			-1.439
86600.000			10.070			-1.439
86702.000			10.070			-1.439
86801.000			10.070			-1.439
86900.000			10.070			-1.439
87001.000			10.068			-1.438
87100.000			10.067			-1.438
87200.000			10.068			-1.438
87301.000			10.068			-1.438
87400.000			10.068			-1.438
87501.000			10.067			-1.438
87602.000			10.067			-1.438
87700.000			10.067			-1.438
87801.000			10.067			-1.438
87900.000			10.066			-1.438
88000.000			10.066			-1.438
88101.000			10.065			-1.438
88200.000			10.065			-1.438
88301.000			10.065			-1.438
88402.000			10.065			-1.438
88500.000			10.065			-1.438
88600.000			10.064			-1.438
88701.000			10.063			-1.438
88800.000			10.064			-1.438
88900.000			10.064			-1.438
89001.000			10.064			-1.438
89101.000			10.063			-1.438
89201.000			10.063			-1.438
89301.000			10.062			-1.437
89400.000			10.061			-1.437
89500.000			10.061			-1.437
89601.000			10.061			-1.437
89700.000			10.061			-1.437
89800.000			10.061			-1.437
89902.000			10.061			-1.437
90001.000			10.061			-1.437
90100.000			10.061			-1.437
90201.000			10.060			-1.437
90300.000			10.059			-1.437
90400.000			10.060			-1.437
90501.000			10.059			-1.437
90600.000			10.059			-1.437
90701.000			10.059			-1.437
90802.000			10.058			-1.437
90900.000			10.058			-1.437
91001.000			10.057			-1.437
91100.000			10.058			-1.437
91200.000			10.059			-1.437
91301.000			10.058			-1.437
91400.000			10.058			-1.437
91501.000			10.058			-1.437
91602.000			10.058			-1.437
91700.000			10.057			-1.437
91800.000			10.057			-1.437
91901.000			10.056			-1.437
92000.000			10.056			-1.437
92100.000			10.055			-1.436
92201.000			10.056			-1.437
92301.000			10.055			-1.436
92401.000			10.054			-1.436
92501.000			10.055			-1.436
92600.000			10.055			-1.436
92700.000			10.055			-1.436
92801.000			10.055			-1.436
92900.000			10.054			-1.436
93000.000			10.053			-1.436
93102.000			10.052			-1.436
93201.000			10.052			-1.436
93300.000			10.052			-1.436
93401.000			10.051			-1.436
93500.000			10.052			-1.436
93600.000			10.052			-1.436
93701.000			10.052			-1.436
93800.000			10.051			-1.436
93901.000			10.050			-1.436
94002.000			10.051			-1.436
94100.000			10.051			-1.436
94201.000			10.050			-1.436
94300.000			10.051			-1.436
94400.000			10.050			-1.436
94501.000			10.049			-1.436
94600.000			10.049			-1.436
94701.000			10.049			-1.436
94802.000			10.049			-1.436
94900.000			10.049			-1.436
95000.000			10.048			-1.435
95101.000			10.048			-1.435
95200.000			10.048			-1.435
95300.000			10.048			-1.435
95401.000			10.048			-1.435
95501.000			10.048			-1.435
95601.000			10.047			-1.435
95701.000			10.046			-1.435
95800.000			10.046			-1.435
95900.000			10.046			-1.435
96001.000			10.047			-1.435
96100.000			10.046			-1.435
96200.000			10.045			-1.435
96301.000			10.045			-1.435
96401.000			10.045			-1.435
96501.000			10.045			-1.435
96601.000			10.045			-1.435
96700.000			10.044			-1.435
96800.000			10.044			-1.435
96901.000			10.044			-1.435
97000.000			10.043			-1.435
97100.000			10.044			-1.435
97202.000			10.044			-1.435
97301.000			10.042			-1.435
97401.000			10.042			-1.435
97500.000			10.042			-1.435
97600.000			10.042			-1.435
97701.000			10.041			-1.434
97800.000			10.041			-1.434
97900.000			10.041			-1.434
98002.000			10.041			-1.434
98101.000			10.042			-1.435
98200.000			10.040			-1.434
98301.000			10.042			-1.435
98400.000			10.042			-1.435
98500.000			10.041			-1.434
98601.000			10.040			-1.434
98700.000			10.040			-1.434
98801.000			10.039			-1.434
98902.000			10.039			-1.434
99000.000			10.038			-1.434
99100.000			10.039			-1.434
99201.000			10.038			-1.434
99300.000			10.037			-1.434
99400.000			10.038			-1.434
99501.000			10.038			-1.434
99601.000			10.037			-1.434
99701.000			10.036			-1.434
99801.000			10.036			-1.434
99900.000			10.036			-1.434
100000.000			10.035			-1.434
100101.000			10.036			-1.434
100200.000			10.037			-1.434
100300.000			10.036			-1.434
100402.000			10.036			-1.434
100501.000			10.036			-1.434
100601.000			10.035			-1.434
100700.000			10.035			-1.434
100800.000			10.035			-1.434
100901.000			10.034			-1.433
101000.000			10.035			-1.434
101100.000			10.035			-1.434
101202.000			10.035			-1.434
101301.000			10.034			-1.433
101400.000			10.034			-1.433
101501.000			10.034			-1.433
101600.000			10.034			-1.433
101700.000			10.033			-1.433
101801.000			10.033			-1.433
101900.000			10.032			-1.433
102001.000			10.032			-1.433
102102.000			10.031			-1.433
102200.000			10.031			-1.433
102300.000			10.032			-1.433
102401.000			10.032			-1.433
102500.000			10.031			-1.433
102600.000			10.031			-1.433
102702.000			10.031			-1.433
102801.000			10.030			-1.433
102901.000			10.030			-1.433
103001.000			10.031			-1.433
103100.000			10.031			-1.433
103200.000			10.031			-1.433
103301.000			10.031			-1.433
103400.000			10.029			-1.433
103501.000			10.028			-1.433
103602.000			10.029			-1.433
103700.000			10.029			-1.433
103801.000			10.029			-1.433
103900.000			10.028			-1.433
104000.000			10.028			-1.433
104101.000			10.028			-1.433
104200.000			10.027			-1.432
104300.000			10.027			-1.432
104402.000			10.027			-1.432
104501.000			10.028			-1.433
104600.000			10.028			-1.433
104701.000			10.027			-1.432
104800.000			10.026			-1.432
104900.000			10.027			-1.432
105001.000			10.027			-1.432
105101.000			10.026			-1.432
105201.000			10.025			-1.432
105302.000			10.026			-1.432
105400.000			10.026			-1.432
105500.000			10.025			-1.432
105601.000			10.025			-1.432
105700.000			10.025			-1.432
105800.000			10.024			-1.432
105901.000			10.024			-1.432
106001.000			10.024			-1.432
106101.000			10.025			-1.432
106201.000			10.023			-1.432
106300.000			10.024			-1.432
106400.000			10.023			-1.432
106501.000			10.024			-1.432
106600.000			10.025			-1.432
106700.000			10.023			-1.432
106802.000			10.021			-1.432
106901.000			10.022			-1.432
107001.000			10.021			-1.432
107100.000			10.021			-1.432
107200.000			10.021			-1.432
107301.000			10.021			-1.432
107400.000			10.021			-1.432
107500.000			10.021			-1.432
107602.000			10.022			-1.432
107701.000			10.021			-1.432
107800.000			10.020			-1.431
107901.000			10.020			-1.431
108000.000			10.021			-1.432
108100.000			10.021			-1.432
108201.000			10.020			-1.431
108300.000			10.019			-1.431
108401.000			10.018			-1.431
108502.000			10.018			-1.431
108600.000			10.018			-1.431
108700.000			10.017			-1.431
108801.000			10.017			-1.431
108900.000			10.017			-1.431
109000.000			10.017			-1.431
109101.000			10.017			-1.431
109201.000			10.017			-1.431
109301.000			10.016			-1.431
109401.000			10.015			-1.431
109500.000			10.015			-1.431
109600.000			10.016			-1.431
109701.000			10.017			-1.431
109800.000			10.015			-1.431
109900.000			10.016			-1.431
110002.000			10.015			-1.431
110101.000			10.015			-1.431
110201.000			10.014			-1.431
110300.000			10.013			-1.430
110400.000			10.013			-1.430
110501.000			10.013			-1.430
110600.000			10.014			-1.431
110700.000			10.013			-1.430
110802.000			10.013			-1.430
110901.000			10.013			-1.430
111000.000			10.013			-1.430
111101.000			10.013			-1.430
111200.000			10.013			-1.430
111300.000			10.011			-1.430
111401.000			10.011			-1.430
111500.000			10.012			-1.430
111601.000			10.011			-1.430
111702.000			10.011			-1.430
111800.000			10.011			-1.430
111900.000			10.011			-1.430
112001.000			10.010			-1.430
112100.000			10.010			-1.430
112200.000			10.011			-1.430
112302.000			10.010			-1.430
112401.000			10.010			-1.430
112500.000			10.010			-1.430
112601.000			10.010			-1.430
112700.000			10.010			-1.430
112800.000			10.009			-1.430
112901.000			10.008			-1.430
113000.000			10.008			-1.430
113100.000			10.007			-1.430
113202.000			10.007			-1.430
113301.000			10.008			-1.430
113401.000			10.007			-1.430
113500.000			10.007			-1.430
113600.000			10.007			-1.430
113701.000			10.007			-1.430
113800.000			10.007			-1.430
113900.000			10.007			-1.430
114002.000			10.006			-1.429
114101.000			10.005			-1.429
114200.000			10.007			-1.430
114301.000			10.006			-1.429
114400.000			10.006			-1.429
114500.000			10.005			-1.429
114601.000			10.005			-1.429
114700.000			10.005			-1.429
114801.000			10.005			-1.429
114902.000			10.004			-1.429
115000.000			10.003			-1.429
115100.000			10.004			-1.429
115201.000			10.005			-1.429
115300.000			10.003			-1.429
115400.000			10.002			-1.429
115502.000			10.002			-1.429
115601.000			10.003			-1.429
115701.000			10.003			-1.429
115801.000			10.002			-1.429
115900.000			10.003			-1.429
116000.000			10.002			-1.429
116101.000			10.002			-1.429
116200.000			10.002			-1.429
116300.000			10.001			-1.429
116402.000			10.001			-1.429
116501.000			10.001			-1.429
116601.000			10.001			-1.429
116700.000			10.000			-1.429
116800.000			10.000			-1.429
116901.000			10.000			-1.429
117000.000			10.000			-1.429
117100.000			10.000			-1.429
117202.000			9.999			-1.428
117301.000			9.998			-1.428
117400.000			9.999			-1.428
117501.000			9.999			-1.428
117600.000			9.999			-1.428
117700.000			9.999			-1.428
117801.000			9.999			-1.428
117900.000			9.999			-1.428
118000.000			9.998			-1.428
118102.000			9.997			-1.428
118201.000			9.997			-1.428
118300.000			9.997			-1.428
118401.000			9.998			-1.428
118500.000			9.997			-1.428
118600.000			9.997			-1.428
118701.000			9.998			-1.428
118800.000			9.996			-1.428
118900.000			9.996			-1.428
119002.000			9.995			-1.428
119101.000			9.995			-1.428
119200.000			9.995			-1.428
119301.000			9.995			-1.428
119400.000			9.995			-1.428
119500.000			9.996			-1.428
119601.000			9.995			-1.428
119700.000			9.995			-1.428
119801.000			9.995			-1.428
119901.000			9.995			-1.428
120001.000			9.995			-1.428
120101.000			9.995			-1.428
120200.000			9.995			-1.428
120300.000			9.993			-1.428
120401.000			9.994			-1.428
120500.000			9.994			-1.428
120600.000			9.994			-1.428
120701.000			9.993			-1.428
120801.000			9.993			-1.428
120901.000			9.992			-1.427
121001.000			9.993			-1.428
121100.000			9.993			-1.428
121200.000			9.994			-1.428
121301.000			9.994			-1.428
121400.000			9.990			-1.427
121500.000			9.991			-1.427
121602.000			9.990			-1.427
121701.000			9.991			-1.427
121801.000			9.992			-1.427
121901.000			9.991			-1.427
122000.000			9.990			-1.427
122100.000			9.991			-1.427
122201.000			9.990			-1.427
122300.000			9.990			-1.427
122400.000			9.990			-1.427
122502.000			9.990			-1.427
122601.000			9.989			-1.427
122700.000			9.989			-1.427
122801.000			9.989			-1.427
122900.000			9.989			-1.427
123001.000			9.989			-1.427
123100.000			9.989			-1.427
123200.000			9.989			-1.427
123301.000			9.988			-1.427
123401.000			9.988			-1.427
123501.000			9.988			-1.427
123601.000			9.988			-1.427
123700.000			9.987			-1.427
123800.000			9.987			-1.427
123901.000			9.987			-1.427
124000.000			9.987			-1.427
124100.000			9.986			-1.427
124201.000			9.987			-1.427
124301.000			9.986			-1.427
124401.000			9.986			-1.427
124501.000			9.985			-1.426
124600.000			9.986			-1.427
124700.000			9.985			-1.426
124801.000			9.984			-1.426
124900.000			9.985			-1.426
125000.000			9.985			-1.426
125101.000			9.985			-1.426
125201.000			9.985			-1.426
125301.000			9.984			-1.426
125401.000			9.985			-1.426
125500.000			9.985			-1.426
125600.000			9.984			-1.426
125701.000			9.984			-1.426
125800.000			9.983			-1.426
125900.000			9.984			-1.426
126001.000			9.983			-1.426
126101.000			9.983			-1.426
126202.000			9.983			-1.426
126300.000			9.983			-1.426
126400.000			9.983			-1.426
126501.000			9.983			-1.426
126600.000			9.982			-1.426
126700.000			9.981			-1.426
126801.000			9.981			-1.426
126901.000			9.982			-1.426
127001.000			9.981			-1.426
127102.000			9.981			-1.426
127200.000			9.982			-1.426
127300.000			9.980			-1.426
127401.000			9.979			-1.426
127500.000			9.980			-1.426
127600.000			9.981			-1.426
127701.000			9.980			-1.426
127801.000			9.980			-1.426
127901.000			9.979			-1.426
128002.000			9.980			-1.426
128100.000			9.980			-1.426
128200.000			9.981			-1.426
128301.000			9.981			-1.426
128400.000			9.980			-1.426
128500.000			9.980			-1.426
128601.000			9.978			-1.425
128701.000			9.978			-1.425
128801.000			9.978			-1.425
128902.000			9.978			-1.425
129000.000			9.977			-1.425
129100.000			9.977			-1.425
129201.000			9.978			-1.425
129300.000			9.979			-1.426
129401.000			9.978			-1.425
129500.000			9.978			-1.425
129600.000			9.978			-1.425
129702.000			9.977			-1.425
129801.000			9.977			-1.425
129900.000			9.976			-1.425
130001.000			9.976			-1.425
130100.000			9.977			-1.425
130200.000			9.976			-1.425
130301.000			9.976			-1.425
130400.000			9.976			-1.425
130501.000			9.976			-1.425
130602.000			9.975			-1.425
130701.000			9.976			-1.425
130800.000			9.975			-1.425
130901.000			9.975			-1.425
131000.000			9.975			-1.425
131100.000			9.975			-1.425
131201.000			9.974			-1.425
131300.000			9.975			-1.425
131401.000			9.974			-1.425
131502.000			9.975			-1.425
131601.000			9.975			-1.425
131700.000			9.974			-1.425
131801.000			9.973			-1.425
131900.000			9.974			-1.425
132000.000			9.974			-1.425
132101.000			9.973			-1.425
132200.000			9.973			-1.425
132301.000			9.974			-1.425
132402.000			9.973			-1.425
132501.000			9.973			-1.425
132601.000			9.972			-1.425
132700.000			9.972			-1.425
132800.000			9.972			-1.425
132901.000			9.971			-1.424
133000.000			9.971			-1.424
133100.000			9.970			-1.424
133201.000			9.970			-1.424
133301.000			9.971			-1.424
133401.000			9.971			-1.424
133501.000			9.971			-1.424
133600.000			9.970			-1.424
133700.000			9.971			-1.424
133801.000			9.971			-1.424
133900.000			9.970			-1.424
134000.000			9.970			-1.424
134101.000			9.970			-1.424
134201.000			9.970			-1.424
134301.000			9.971			-1.424
134401.000			9.969			-1.424
134500.000			9.968			-1.424
134600.000			9.968			-1.424
134701.000			9.968			-1.424
134800.000			9.967			-1.424
134900.000			9.968			-1.424
135001.000			9.968			-1.424
135101.000			9.967			-1.424
135201.000			9.968			-1.424
135302.000			9.968			-1.424
135400.000			9.967			-1.424
135500.000			9.967			-1.424
135601.000			9.968			-1.424
135700.000			9.967			-1.424
135801.000			9.967			-1.424
135900.000			9.966			-1.424
136000.000			9.967			-1.424
136101.000			9.966			-1.424
136201.000			9.966			-1.424
136301.000			9.966			-1.424
136401.000			9.966			-1.424
136500.000			9.966			-1.424
136600.000			9.965			-1.424
136701.000			9.965			-1.424
136800.000			9.964			-1.423
136900.000			9.964			-1.423
137001.000			9.964			-1.423
137101.000			9.964			-1.423
137201.000			9.964			-1.423
137301.000			9.964			-1.423
137400.000			9.963			-1.423
137500.000			9.963			-1.423
137601.000			9.963			-1.423
137700.000			9.963			-1.423
137800.000			9.964			-1.423
137901.000			9.964			-1.423
138000.000			9.963			-1.423
138101.000			9.962			-1.423
138202.000			9.963			-1.423
138300.000			9.963			-1.423
138400.000			9.963			-1.423
138501.000			9.962			-1.423
138600.000			9.962			-1.423
138700.000			9.962			-1.423
138801.000			9.962			-1.423
138900.000			9.961			-1.423
139002.000			9.961			-1.423
139101.000			9.961			-1.423
139201.000			9.960			-1.423
139301.000			9.961			-1.423
139400.000			9.962			-1.423
139500.000			9.960			-1.423
139601.000			9.960			-1.423
139700.000			9.960			-1.423
139800.000			9.959			-1.423
139901.000			9.959			-1.423
140001.000			9.960			-1.423
140101.000			9.960			-1.423
140202.000			9.960			-1.423
140300.000			9.959			-1.423
140400.000			9.958			-1.423
140501.000			9.959			-1.423
140600.000			9.959			-1.423
140700.000			9.959			-1.423
140801.000			9.958			-1.423
140900.000			9.957			-1.422
141001.000			9.958			-1.423
141102.000			9.958			-1.423
141200.000			9.957			-1.422
141300.000			9.957			-1.422
141401.000			9.956			-1.422
141500.000			9.956			-1.422
141600.000			9.957			-1.422
141701.000			9.956			-1.422
141800.000			9.955			-1.422
141901.000			9.955			-1.422
142002.000			9.955			-1.422
142101.000			9.955			-1.422
142201.000			9.955			-1.422
142300.000			9.954			-1.422
142400.000			9.955			-1.422
142501.000			9.955			-1.422
142600.000			9.953			-1.422
142700.000			9.953			-1.422
142801.000			9.954			-1.422
142901.000			9.954			-1.422
143001.000			9.954			-1.422
143101.000			9.953			-1.422
143200.000			9.954			-1.422
143300.000			9.954			-1.422
143401.000			9.952			-1.422
143500.000			9.952			-1.422
143600.000			9.953			-1.422
143701.000			9.953			-1.422
143801.000			9.951			-1.422
143901.000			9.950			-1.421
144002.000			9.951			-1.422
144100.000			9.951			-1.422
144200.000			9.951			-1.422
144301.000			9.950			-1.421
144400.000			9.950			-1.421
144500.000			9.950			-1.421
144601.000			9.951			-1.422
144700.000			9.951			-1.422
144801.000			9.950			-1.421
144902.000			9.950			-1.421
145000.000			9.951			-1.422
145100.000			9.950			-1.421
145201.000			9.949			-1.421
145300.000			9.949			-1.421
145401.000			9.950			-1.421
145500.000			9.950			-1.421
145600.000			9.949			-1.421
145702.000			9.948			-1.421
145801.000			9.947			-1.421
145901.000			9.947			-1.421
146001.000			9.947			-1.421
146100.000			9.948			-1.421
146200.000			9.948			-1.421
146301.000			9.947			-1.421
146400.000			9.948			-1.421
146500.000			9.948			-1.421
146601.000			9.947			-1.421
146701.000			9.947			-1.421
146801.000			9.947			-1.421
146902.000			9.947			-1.421
147000.000			9.946			-1.421
147100.000			9.946			-1.421
147201.000			9.946			-1.421
147300.000			9.946			-1.421
147400.000			9.946			-1.421
147501.000			9.945			-1.421
147600.000			9.944			-1.421
147701.000			9.944			-1.421
147802.000			9.944			-1.421
147901.000			9.943			-1.420
148000.000			9.943			-1.420
148101.000			9.945			-1.421
148200.000			9.944			-1.421
148300.000			9.944			-1.421
148401.000			9.944			-1.421
148500.000			9.943			-1.420
148601.000			9.943			-1.420
148701.000			9.943			-1.420
148801.000			9.944			-1.421
148901.000			9.942			-1.420
149000.000			9.943			-1.420
149100.000			9.943			-1.420
149201.000			9.942			-1.420
149300.000			9.943			-1.420
149400.000			9.942			-1.420
149501.000			9.942			-1.420
149601.000			9.942			-1.420
149701.000			9.942			-1.420
149802.000			9.942			-1.420
149900.000			9.942			-1.420
150000.000			9.942			-1.420
150101.000			9.941			-1.420
150200.000			9.941			-1.420
150300.000			9.940			-1.420
150401.000			9.940			-1.420
150500.000			9.940			-1.420
150601.000			9.939			-1.420
150702.000			9.939			-1.420
150801.000			9.939			-1.420
150900.000			9.939			-1.420
151001.000			9.939			-1.420
151100.000			9.939			-1.420
151200.000			9.940			-1.420
151301.000			9.939			-1.420
151400.000			9.938			-1.420
151500.000			9.938			-1.420
151602.000			9.939			-1.420
151701.000			9.939			-1.420
151801.000			9.938			-1.420
151900.000			9.937			-1.420
152000.000			9.938			-1.420
152101.000			9.937			-1.420
152200.000			9.938			-1.420
152300.000			9.937			-1.420
152401.000			9.937			-1.420
152501.000			9.938			-1.420
152601.000			9.937			-1.420
152702.000			9.937			-1.420
152800.000			9.936			-1.419
152900.000			9.936			-1.419
153001.000			9.936			-1.419
153100.000			9.936			-1.419
153200.000			9.935			-1.419
153301.000			9.935			-1.419
153400.000			9.936			-1.419
153501.000			9.935			-1.419
153602.000			9.936			-1.419
153701.000			9.935			-1.419
153800.000			9.935			-1.419
153901.000			9.934			-1.419
154000.000			9.935			-1.419
154100.000			9.934			-1.419
154201.000			9.935			-1.419
154300.000			9.935			-1.419
154400.000			9.935			-1.419
154502.000			9.934			-1.419
154601.000			9.934			-1.419
154700.000			9.932			-1.419
154801.000			9.933			-1.419
154900.000			9.932			-1.419
155001.000			9.932			-1.419
155100.000			9.933			-1.419
155200.000			9.933			-1.419
155301.000			9.933			-1.419
155401.000			9.933			-1.419
155501.000			9.933			-1.419
155602.000			9.932			-1.419
155700.000			9.932			-1.419
155800.000			9.931			-1.419
155901.000			9.932			-1.419
156000.000			9.932			-1.419
156100.000			9.930			-1.419
156201.000			9.932			-1.419
156300.000			9.931			-1.419
156401.000			9.931			-1.419
156502.000			9.930			-1.419
156601.000			9.931			-1.419
156700.000			9.932			-1.419
156801.000			9.931			-1.419
156900.000			9.930			-1.419
157000.000			9.930			-1.419
157101.000			9.930			-1.419
157200.000			9.930			-1.419
157300.000			9.929			-1.418
157402.000			9.929			-1.418
157501.000			9.930			-1.419
157600.000			9.929			-1.418
157701.000			9.929			-1.418
157800.000			9.928			-1.418
157900.000			9.929			-1.418
158001.000			9.930			-1.419
158100.000			9.930			-1.419
158201.000			9.929			-1.418
158301.000			9.929			-1.418
158401.000			9.929			-1.418
158502.000			9.929			-1.418
158600.000			9.928			-1.418
158700.000			9.927			-1.418
158801.000			9.927			-1.418
158900.000			9.927			-1.418
159000.000			9.928			-1.418
159101.000			9.928			-1.418
159200.000			9.927			-1.418
159301.000			9.927			-1.418
159402.000			9.926			-1.418
159501.000			9.927			-1.418
159600.000			9.926			-1.418
159701.000			9.925			-1.418
159800.000			9.926			-1.418
159900.000			9.926			-1.418
160001.000			9.927			-1.418
160100.000			9.926			-1.418
160200.000			9.926			-1.418
160302.000			9.926			-1.418
160401.000			9.926			-1.418
160500.000			9.926			-1.418
160601.000			9.926			-1.418
160700.000			9.926			-1.418
160800.000			9.925			-1.418
160901.000			9.925			-1.418
161000.000			9.926			-1.418
161100.000			9.925			-1.418
161202.000			9.924			-1.418
161301.000			9.925			-1.418
161402.000			9.925			-1.418
161500.000			9.925			-1.418
161600.000			9.925			-1.418
161701.000			9.925			-1.418
161800.000			9.925			-1.418
161900.000			9.923			-1.418
162001.000			9.924			-1.418
162100.000			9.925			-1.418
162201.000			9.924			-1.418
162302.000			9.924			-1.418
162400.000			9.924			-1.418
162500.000			9.923			-1.418
162601.000			9.924			-1.418
162700.000			9.924			-1.418
162800.000			9.922			-1.417
162901.000			9.923			-1.418
163000.000			9.923			-1.418
163101.000			9.923			-1.418
163202.000			9.923			-1.418
163301.000			9.923			-1.418
163400.000			9.922			-1.417
163501.000			9.922			-1.417
163600.000			9.922			-1.417
163700.000			9.921			-1.417
163801.000			9.921			-1.417
163900.000			9.922			-1.417
164000.000			9.922			-1.417
164102.000			9.922			-1.417
164201.000			9.922			-1.417
164300.000			9.922			-1.417
164401.000			9.921			-1.417
164500.000			9.920			-1.417
164601.000			9.920			-1.417
164700.000			9.920			-1.417
164800.000			9.921			-1.417
164901.000			9.921			-1.417
165001.000			9.919			-1.417
165101.000			9.920			-1.417
165202.000			9.920			-1.417
165300.000			9.920			-1.417
165400.000			9.920			-1.417
165501.000			9.920			-1.417
165600.000			9.919			-1.417
165700.000			9.919			-1.417
165801.000			9.919			-1.417
165900.000			9.919			-1.417
166001.000			9.919			-1.417
166102.000			9.919			-1.417
166200.000			9.918			-1.417
166300.000			9.919			-1.417
166401.000			9.918			-1.417
166500.000			9.918			-1.417
166600.000			9.917			-1.417
166701.000			9.917			-1.417
166800.000			9.918			-1.417
166900.000			9.917			-1.417
167002.000			9.916			-1.417
167101.000			9.916			-1.417
167200.000			9.916			-1.417
167301.000			9.916			-1.417
167400.000			9.916			-1.417
167500.000			9.916			-1.417
167601.000			9.916			-1.417
167700.000			9.916			-1.417
167801.000			9.915			-1.416
167901.000			9.915			-1.416
168001.000			9.915			-1.416
168102.000			9.915			-1.416
168200.000			9.915			-1.416
168300.000			9.914			-1.416
168401.000			9.915			-1.416
168500.000			9.915			-1.416
168600.000			9.915			-1.416
168701.000			9.915			-1.416
168800.000			9.915			-1.416
168901.000			9.914			-1.416
169002.000			9.914			-1.416
169101.000			9.915			-1.416
169200.000			9.914			-1.416
169301.000			9.914			-1.416
169400.000			9.915			-1.416
169500.000			9.915			-1.416
169601.000			9.914			-1.416
169700.000			9.913			-1.416
169800.000			9.913			-1.416
169902.000			9.913			-1.416
170001.000			9.914			-1.416
170100.000			9.914			-1.416
170201.000			9.913			-1.416
170300.000			9.912			-1.416
170400.000			9.913			-1.416
170501.000			9.913			-1.416
170600.000			9.912			-1.416
170700.000			9.911			-1.416
170802.000			9.912			-1.416
170901.000			9.912			-1.416
171002.000			9.911			-1.416
171100.000			9.911			-1.416
171200.000			9.912			-1.416
171301.000			9.911			-1.416
171400.000			9.912			-1.416
171500.000			9.911			-1.416
171601.000			9.910			-1.416
171701.000			9.910			-1.416
171801.000			9.911			-1.416
171902.000			9.910			-1.416
172000.000			9.909			-1.416
172100.000			9.911			-1.416
172201.000			9.911			-1.416
172300.000			9.911			-1.416
172400.000			9.910			-1.416
172501.000			9.910			-1.416
172600.000			9.911			-1.416
172701.000			9.910			-1.416
172802.000			9.911			-1.416
172900.000			9.910			-1.416
173000.000			9.911			-1.416
173101.000			9.911			-1.416
173200.000			9.911			-1.416
173300.000			9.910			-1.416
173401.000			9.909			-1.416
173500.000			9.910			-1.416
173601.000			9.910			-1.416
173702.000			9.909			-1.416
173801.000			9.908			-1.415
173900.000			9.909			-1.416
174001.000			9.909			-1.416
174100.000			9.909			-1.416
174201.000			9.909			-1.416
174300.000			9.908			-1.415
174400.000			9.909			-1.416
174501.000			9.908			-1.415
174601.000			9.908			-1.415
174701.000			9.908			-1.415
174802.000			9.908			-1.415
174900.000			9.907			-1.415
175000.000			9.908			-1.415
175101.000			9.908			-1.415
175200.000			9.907			-1.415
175300.000			9.906			-1.415
175401.000			9.907			-1.415
175500.000			9.907			-1.415
175601.000			9.906			-1.415
175702.000			9.904			-1.415
175800.000			9.906			-1.415
175900.000			9.907			-1.415
176001.000			9.906			-1.415
176100.000			9.905			-1.415
176200.000			9.905			-1.415
176301.000			9.906			-1.415
176400.000			9.904			-1.415
176501.000			9.904			-1.415
176602.000			9.905			-1.415
176701.000			9.904			-1.415
176800.000			9.903			-1.415
176901.000			9.903			-1.415
177000.000			9.903			-1.415
177100.000			9.902			-1.415
177201.000			9.903			-1.415
177300.000			9.903			-1.415
177401.000			9.903			-1.415
177501.000			9.903			-1.415
177601.000			9.902			-1.415
177701.000			9.901			-1.414
177800.000			9.902			-1.415
177900.000			9.901			-1.414
178001.000			9.901			-1.414
178100.000			9.900			-1.414
178200.000			9.901			-1.414
178301.000			9.901			-1.414
178401.000			9.900			-1.414
178501.000			9.901			-1.414
178602.000			9.900			-1.414
178700.000			9.899			-1.414
178800.000			9.898			-1.414
178901.000			9.899			-1.414
179000.000			9.899			-1.414
179100.000			9.899			-1.414
179201.000			9.899			-1.414
179300.000			9.899			-1.414
179400.000			9.898			-1.414
179502.000			9.898			-1.414
179601.000			9.898			-1.414
179700.000			9.898			-1.414
179801.000			9.900			-1.414
179900.000			9.898			-1.414
180000.000			9.897			-1.414
180101.000			9.897			-1.414
180200.000			9.898			-1.414
180300.000			9.896			-1.414
180401.000			9.897			-1.414
180501.000			9.897			-1.414
180602.000			9.896			-1.414
180700.000			9.895			-1.414
180800.000			9.896			-1.414
180901.000			9.896			-1.414
181000.000			9.896			-1.414
181100.000			9.896			-1.414
181201.000			9.896			-1.414
181300.000			9.895			-1.414
181401.000			9.895			-1.414
181502.000			9.895			-1.414
181601.000			9.894			-1.413
181700.000			9.893			-1.413
181801.000			9.894			-1.413
181900.000			9.895			-1.414
182000.000			9.894			-1.413
182101.000			9.894			-1.413
182200.000			9.893			-1.413
182300.000			9.892			-1.413
182402.000			9.893			-1.413
182501.000			9.894			-1.413
182601.000			9.893			-1.413
182701.000			9.894			-1.413
182800.000			9.894			-1.413
182900.000			9.893			-1.413
183001.000			9.893			-1.413
183100.000			9.893			-1.413
183200.000			9.893			-1.413
183301.000			9.893			-1.413
183401.000			9.892			-1.413
183501.000			9.893			-1.413
183601.000			9.892			-1.413
183700.000			9.891			-1.413
183801.000			9.892			-1.413
183900.000			9.892			-1.413
184000.000			9.891			-1.413
184101.000			9.891			-1.413
184200.000			9.891			-1.413
184300.000			9.891			-1.413
184402.000			9.891			-1.413
184501.000			9.890			-1.413
184600.000			9.890			-1.413
184701.000			9.890			-1.413
184800.000			9.890			-1.413
184900.000			9.890			-1.413
185001.000			9.890			-1.413
185100.000			9.890			-1.413
185200.000			9.890			-1.413
185301.000			9.890			-1.413
185401.000			9.889			-1.413
185501.000			9.889			-1.413
185601.000			9.890			-1.413
185700.000			9.890			-1.413
185800.000			9.890			-1.413
185901.000			9.889			-1.413
186000.000			9.888			-1.413
186100.000			9.888			-1.413
186201.000			9.889			-1.413
186300.000			9.889			-1.413
186401.000			9.888			-1.413
186502.000			9.888			-1.413
186601.000			9.888			-1.413
186700.000			9.887			-1.412
186801.000			9.888			-1.413
186900.000			9.888			-1.413
187001.000			9.886			-1.412
187100.000			9.887			-1.412
187200.000			9.887			-1.412
187301.000			9.888			-1.413
187401.000			9.887			-1.412
187501.000			9.887			-1.412
187602.000			9.887			-1.412
187700.000			9.887			-1.412
187800.000			9.887			-1.412
187901.000			9.888			-1.413
188000.000			9.886			-1.412
188100.000			9.886			-1.412
188201.000			9.886			-1.412
188300.000			9.887			-1.412
188401.000			9.886			-1.412
188502.000			9.887			-1.412
188601.000			9.886			-1.412
188700.000			9.886			-1.412
188801.000			9.886			-1.412
188900.000			9.886			-1.412
189000.000			9.886			-1.412
189101.000			9.886			-1.412
189200.000			9.885			-1.412
189300.000			9.884			-1.412
189402.000			9.886			-1.412
189501.000			9.886			-1.412
189601.000			9.884			-1.412
189701.000			9.884			-1.412
189800.000			9.884			-1.412
189900.000			9.884			-1.412
190001.000			9.883			-1.412
190100.000			9.884			-1.412
190201.000			9.884			-1.412
190300.000			9.884			-1.412
190400.000			9.883			-1.412
190502.000			9.884			-1.412
190601.000			9.884			-1.412
190700.000			9.884			-1.412
190801.000			9.882			-1.412
190900.000			9.882			-1.412
191000.000			9.882			-1.412
191101.000			9.882			-1.412
191200.000			9.882			-1.412
191300.000			9.883			-1.412
191402.000			9.883			-1.412
191501.000			9.882			-1.412
191600.000			9.882			-1.412
191701.000			9.882			-1.412
191800.000			9.883			-1.412
191900.000			9.883			-1.412
192001.000			9.882			-1.412
192100.000			9.881			-1.412
192200.000			9.881			-1.412
192302.000			9.881			-1.412
192401.000			9.880			-1.411
192501.000			9.881			-1.412
192601.000			9.881			-1.412
192700.000			9.881			-1.412
192800.000			9.881			-1.412
192901.000			9.880			-1.411
193000.000			9.881			-1.412
193100.000			9.881			-1.412
193201.000			9.881			-1.412
193301.000			9.880			-1.411
193402.000			9.880			-1.411
193501.000			9.879			-1.411
193600.000			9.879			-1.411
193701.000			9.879			-1.411
193800.000			9.879			-1.411
193900.000			9.880			-1.411
194001.000			9.880			-1.411
194100.000			9.878			-1.411
194200.000			9.880			-1.411
194301.000			9.879			-1.411
194401.000			9.879			-1.411
194501.000			9.879			-1.411
194601.000			9.879			-1.411
194700.000			9.879			-1.411
194800.000			9.878			-1.411
194901.000			9.879			-1.411
195000.000			9.879			-1.411
195100.000			9.877			-1.411
195201.000			9.877			-1.411
195300.000			9.877			-1.411
195401.000			9.877			-1.411
195502.000			9.877			-1.411
195601.000			9.878			-1.411
195700.000			9.878			-1.411
195801.000			9.877			-1.411
195900.000			9.878			-1.411
196000.000			9.877			-1.411
196101.000			9.877			-1.411
196200.000			9.878			-1.411
196300.000			9.876			-1.411
196402.000			9.876			-1.411
196501.000			9.876			-1.411
196601.000			9.876			-1.411
196700.000			9.877			-1.411
196800.000			9.878			-1.411
196901.000			9.876			-1.411
197000.000			9.875			-1.411
197100.000			9.875			-1.411
197201.000			9.876			-1.411
197300.000			9.875			-1.411
197401.000			9.875			-1.411
197502.000			9.876			-1.411
197601.000			9.875			-1.411
197700.000			9.875			-1.411
197801.000			9.874			-1.411
197900.000			9.874			-1.411
198000.000			9.874			-1.411
198101.000			9.874			-1.411
198200.000			9.874			-1.411
198300.000			9.874			-1.411
198402.000			9.874			-1.411
198501.000			9.875			-1.411
198601.000			9.874			-1.411
198701.000			9.873			-1.410
198800.000			9.873			-1.410
198900.000			9.872			-1.410
199001.000			9.872			-1.410
199100.000			9.872			-1.410
199200.000			9.872			-1.410
199301.000			9.873			-1.410
199401.000			9.874			-1.411
199501.000			9.873			-1.410
199602.000			9.872			-1.410
199700.000			9.873			-1.410
199801.000			9.873			-1.410
199900.000			9.872			-1.410
200000.000			9.872			-1.410
200101.000			9.871			-1.410
200200.000			9.871			-1.410
200300.000			9.871			-1.410
200402.000			9.871			-1.410
200501.000			9.872			-1.410
200600.000			9.872			-1.410
200701.000			9.872			-1.410
200800.000			9.870			-1.410
200900.000			9.870			-1.410
201001.000			9.870			-1.410
201100.000			9.870			-1.410
201200.000			9.870			-1.410
201302.000			9.870			-1.410
201401.000			9.869			-1.410
201501.000			9.870			-1.410
201601.000			9.870			-1.410
201700.000			9.869			-1.410
201800.000			9.869			-1.410
201901.000			9.869			-1.410
202000.000			9.869			-1.410
202100.000			9.869			-1.410
202201.000			9.869			-1.410
202301.000			9.869			-1.410
202401.000			9.868			-1.410
202501.000			9.868			-1.410
202600.000			9.868			-1.410
202700.000			9.868			-1.410
202801.000			9.868			-1.410
202900.000			9.868			-1.410
203001.000			9.868			-1.410
203100.000			9.868			-1.410
203201.000			9.868			-1.410
203302.000			9.868			-1.410
203401.000			9.867			-1.410
203500.000			9.866			-1.409
203601.000			9.866			-1.409
203700.000			9.866			-1.409
203800.000			9.868			-1.410
203901.000			9.866			-1.409
204000.000			9.867			-1.410
204100.000			9.867			-1.410
204202.000			9.867			-1.410
204301.000			9.867			-1.410
204400.000			9.868			-1.410
204501.000			9.867			-1.410
204600.000			9.866			-1.409
204700.000			9.866			-1.409
204801.000			9.866			-1.409
204900.000			9.866			-1.409
205000.000			9.866			-1.409
205102.000			9.865			-1.409
205201.000			9.865			-1.409
205301.000			9.865			-1.409
205401.000			9.865			-1.409
205500.000			9.864			-1.409
205600.000			9.865			-1.409
205701.000			9.865			-1.409
205800.000			9.864			-1.409
205900.000			9.864			-1.409
206001.000			9.865			-1.409
206101.000			9.864			-1.409
206202.000			9.864			-1.409
206300.000			9.864			-1.409
206400.000			9.864			-1.409
206501.000			9.864			-1.409
206600.000			9.864			-1.409
206700.000			9.863			-1.409
206801.000			9.865			-1.409
206900.000			9.865			-1.409
207001.000			9.864			-1.409
207102.000			9.863			-1.409
207200.000			9.863			-1.409
207300.000			9.863			-1.409
207401.000			9.863			-1.409
207500.000			9.863			-1.409
207600.000			9.863			-1.409
207701.000			9.863			-1.409
207800.000			9.863			-1.409
207901.000			9.862			-1.409
208002.000			9.862			-1.409
208101.000			9.862			-1.409
208200.000			9.861			-1.409
208301.000			9.861			-1.409
208400.000			9.862			-1.409
208500.000			9.862			-1.409
208601.000			9.862			-1.409
208700.000			9.861			-1.409
208800.000			9.861			-1.409
208902.000			9.861			-1.409
209001.000			9.860			-1.409
209100.000			9.860			-1.409
209201.000			9.860			-1.409
209300.000			9.861			-1.409
209401.000			9.862			-1.409
209500.000			9.861			-1.409
209600.000			9.861			-1.409
209701.000			9.859			-1.408
209801.000			9.860			-1.409
209901.000			9.859			-1.408
210002.000			9.859			-1.408
210100.000			9.859			-1.408
210200.000			9.860			-1.409
210301.000			9.859			-1.408
210400.000			9.859			-1.408
210500.000			9.859			-1.408
210601.000			9.859			-1.408
210701.000			9.858			-1.408
210801.000			9.858			-1.408
210902.000			9.858			-1.408
211000.000			9.859			-1.408
211100.000			9.859			-1.408
211201.000			9.859			-1.408
211300.000			9.859			-1.408
211400.000			9.858			-1.408
211501.000			9.859			-1.408
211600.000			9.858			-1.408
211701.000			9.858			-1.408
211802.000			9.857			-1.408
211901.000			9.857			-1.408
212000.000			9.858			-1.408
212101.000			9.857			-1.408
212200.000			9.857			-1.408
212300.000			9.859			-1.408
212401.000			9.858			-1.408
212500.000			9.858			-1.408
212602.000			9.857			-1.408
212701.000			9.857			-1.408
212801.000			9.857			-1.408
212901.000			9.857			-1.408
213000.000			9.857			-1.408
213100.000			9.857			-1.408
213201.000			9.857			-1.408
213300.000			9.858			-1.408
213400.000			9.857			-1.408
213501.000			9.857			-1.408
213601.000			9.857			-1.408
213701.000			9.857			-1.408
213801.000			9.857			-1.408
213900.000			9.857			-1.408
214000.000			9.858			-1.408
214101.000			9.857			-1.408
214200.000			9.857			-1.408
214300.000			9.857			-1.408
214401.000			9.858			-1.408
214501.000			9.858			-1.408
214601.000			9.858			-1.408
214701.000			9.858			-1.408
214800.000			9.858			-1.408
214900.000			9.858			-1.408
215001.000			9.857			-1.408
215100.000			9.857			-1.408
215200.000			9.857			-1.408
215301.000			9.857			-1.408
215401.000			9.856			-1.408
215501.000			9.858			-1.408
215602.000			9.857			-1.408
215700.000			9.856			-1.408
215801.000			9.856			-1.408
215900.000			9.856			-1.408
216000.000			9.857			-1.408
216101.000			9.856			-1.408
216200.000			9.856			-1.408
216300.000			9.856			-1.408
216402.000			9.856			-1.408
216501.000			9.857			-1.408
216601.000			9.856			-1.408
216701.000			9.856			-1.408
216800.000			9.857			-1.408
216900.000			9.856			-1.408
217001.000			9.857			-1.408
217100.000			9.858			-1.408
217200.000			9.857			-1.408
217301.000			9.856			-1.408
217401.000			9.856			-1.408
217501.000			9.855			-1.408
217601.000			9.856			-1.408
217700.000			9.855			-1.408
217800.000			9.855			-1.408
217901.000			9.855			-1.408
218000.000			9.855			-1.408
218100.000			9.855			-1.408
218201.000			9.855			-1.408
218301.000			9.855			-1.408
218401.000			9.854			-1.408
218502.000			9.855			-1.408
218600.000			9.855			-1.408
218700.000			9.855			-1.408
218801.000			9.855			-1.408
218900.000			9.855			-1.408
219001.000			9.854			-1.408
219100.000			9.855			-1.408
219200.000			9.855			-1.408
219302.000			9.855			-1.408
219401.000			9.855			-1.408
219501.000			9.854			-1.408
219601.000			9.854			-1.408
219700.000			9.853			-1.408
219800.000			9.854			-1.408
219901.000			9.853			-1.408
220000.000			9.853			-1.408
220100.000			9.853			-1.408
220201.000			9.853			-1.408
220301.000			9.853			-1.408
220401.000			9.853			-1.408
220501.000			9.853			-1.408
220600.000			9.853			-1.408
220700.000			9.853			-1.408
220801.000			9.853			-1.408
220900.000			9.853			-1.408
221000.000			9.852			-1.407
221101.000			9.852			-1.407
221201.000			9.852			-1.407
221301.000			9.852			-1.407
221401.000			9.852			-1.407
221500.000			9.852			-1.407
221600.000			9.851			-1.407
221701.000			9.851			-1.407
221800.000			9.851			-1.407
221900.000			9.851			-1.407
222001.000			9.851			-1.407
222101.000			9.851			-1.407
222202.000			9.851			-1.407
222300.000			9.851			-1.407
222400.000			9.851			-1.407
222501.000			9.851			-1.407
222600.000			9.852			-1.407
222700.000			9.850			-1.407
222801.000			9.850			-1.407
222900.000			9.850			-1.407
223001.000			9.849			-1.407
223102.000			9.849			-1.407
223201.000			9.850			-1.407
223300.000			9.850			-1.407
223401.000			9.850			-1.407
223500.000			9.849			-1.407
223600.000			9.848			-1.407
223701.000			9.849			-1.407
223800.000			9.850			-1.407
223900.000			9.850			-1.407
224002.000			9.849			-1.407
224101.000			9.848			-1.407
224200.000			9.848			-1.407
224301.000			9.848			-1.407
224400.000			9.848			-1.407
224500.000			9.848			-1.407
224601.000			9.848			-1.407
224700.000			9.848			-1.407
224800.000			9.848			-1.407
224902.000			9.848			-1.407
225001.000			9.848			-1.407
225101.000			9.848			-1.407
225201.000			9.848			-1.407
225300.000			9.848			-1.407
225401.000			9.848			-1.407
225500.000			9.847			-1.407
225600.000			9.846			-1.407
225701.000			9.846			-1.407
225800.000			9.846			-1.407
225901.000			9.846			-1.407
226002.000			9.846			-1.407
226100.000			9.846			-1.407
226200.000			9.846			-1.407
226301.000			9.846			-1.407
226400.000			9.846			-1.407
226500.000			9.845			-1.406
226601.000			9.845			-1.406
226700.000			9.845			-1.406
226801.000			9.846			-1.407
226902.000			9.846			-1.407
227001.000			9.845			-1.406
227100.000			9.844			-1.406
227201.000			9.845			-1.406
227300.000			9.844			-1.406
227400.000			9.845			-1.406
227501.000			9.845			-1.406
227600.000			9.844			-1.406
227700.000			9.845			-1.406
227802.000			9.845			-1.406
227901.000			9.842			-1.406
228000.000			9.843			-1.406
228101.000			9.844			-1.406
228200.000			9.844			-1.406
228300.000			9.843			-1.406
228401.000			9.843			-1.406
228500.000			9.842			-1.406
228601.000			9.842			-1.406
228700.000			9.842			-1.406
228801.000			9.842			-1.406
228902.000			9.843			-1.406
229000.000			9.842			-1.406
229100.000			9.842			-1.406
229201.000			9.842			-1.406
229300.000			9.842			-1.406
229400.000			9.842			-1.406
229501.000			9.841			-1.406
229600.000			9.841			-1.406
229701.000			9.840			-1.406
229802.000			9.840			-1.406
229901.000			9.841			-1.406
230000.000			9.842			-1.406
230101.000			9.840			-1.406
230200.000			9.839			-1.406
230300.000			9.840			-1.406
230401.000			9.839			-1.406
230500.000			9.839			-1.406
230600.000			9.839			-1.406
230702.000			9.838			-1.405
230801.000			9.838			-1.405
230900.000			9.838			-1.405
231001.000			9.840			-1.406
231100.000			9.839			-1.406
231200.000			9.838			-1.405
231301.000			9.838			-1.405
231400.000			9.839			-1.406
231500.000			9.838			-1.405
231602.000			9.839			-1.406
231701.000			9.838			-1.405
231802.000			9.838			-1.405
231900.000			9.837			-1.405
232000.000			9.836			-1.405
232101.000			9.836			-1.405
232200.000			9.836			-1.405
232300.000			9.837			-1.405
232401.000			9.837			-1.405
232500.000			9.837			-1.405
232601.000			9.836			-1.405
232702.000			9.835			-1.405
232800.000			9.835			-1.405
232900.000			9.836			-1.405
233001.000			9.836			-1.405
233100.000			9.836			-1.405
233200.000			9.836			-1.405
233301.000			9.836			-1.405
233400.000			9.834			-1.405
233501.000			9.835			-1.405
233602.000			9.834			-1.405
233701.000			9.834			-1.405
233800.000			9.835			-1.405
233901.000			9.835			-1.405
234000.000			9.835			-1.405
234100.000			9.835			-1.405
234201.000			9.834			-1.405
234300.000			9.833			-1.405
234400.000			9.833			-1.405
234502.000			9.834			-1.405
234601.000			9.833			-1.405
234700.000			9.832			-1.405
234801.000			9.834			-1.405
234900.000			9.833			-1.405
235001.000			9.833			-1.405
235100.000			9.833			-1.405
235200.000			9.833			-1.405
235301.000			9.833			-1.405
235401.000			9.832			-1.405
235501.000			9.833			-1.405
235601.000			9.833			-1.405
235700.000			9.832			-1.405
235800.000			9.832			-1.405
235901.000			9.832			-1.405
236000.000			9.833			-1.405
236100.000			9.832			-1.405
236201.000			9.832			-1.405
236301.000			9.832			-1.405
236401.000			9.832			-1.405
236502.000			9.831			-1.404
236600.000			9.831			-1.404
236700.000			9.831			-1.404
236801.000			9.830			-1.404
236900.000			9.830			-1.404
237000.000			9.831			-1.404
237101.000			9.830			-1.404
237200.000			9.830			-1.404
237301.000			9.830			-1.404
237402.000			9.830			-1.404
237500.000			9.830			-1.404
237600.000			9.829			-1.404
237701.000			9.829			-1.404
237800.000			9.829			-1.404
237900.000			9.829			-1.404
238001.000			9.829			-1.404
238100.000			9.830			-1.404
238201.000			9.829			-1.404
238301.000			9.829			-1.404
238401.000			9.829			-1.404
238501.000			9.828			-1.404
238600.000			9.829			-1.404
238700.000			9.829			-1.404
238801.000			9.828			-1.404
238900.000			9.828			-1.404
239000.000			9.829			-1.404
239101.000			9.828			-1.404
239201.000			9.829			-1.404
239301.000			9.829			-1.404
239402.000			9.828			-1.404
239500.000			9.829			-1.404
239600.000			9.829			-1.404
239701.000			9.828			-1.404
239800.000			9.827			-1.404
239900.000			9.828			-1.404
240001.000			9.828			-1.404
240100.000			9.828			-1.404
240201.000			9.828			-1.404
240302.000			9.828			-1.404
240401.000			9.827			-1.404
240500.000			9.827			-1.404
240601.000			9.827			-1.404
240700.000			9.828			-1.404
240800.000			9.827			-1.404
240901.000			9.827			-1.404
241000.000			9.826			-1.404
241100.000			9.827			-1.404
241202.000			9.827			-1.404
241301.000			9.826			-1.404
241401.000			9.826			-1.404
241500.000			9.827			-1.404
241600.000			9.826			-1.404
241701.000			9.827			-1.404
241800.000			9.827			-1.404
241900.000			9.827			-1.404
242001.000			9.826			-1.404
242101.000			9.827			-1.404
242201.000			9.826			-1.404
242302.000			9.826			-1.404
242400.000			9.826			-1.404
242500.000			9.826			-1.404
242601.000			9.825			-1.404
242700.000			9.824			-1.403
242800.000			9.825			-1.404
242901.000			9.826			-1.404
243000.000			9.826			-1.404
243101.000			9.825			-1.404
243202.000			9.825			-1.404
243300.000			9.826			-1.404
243400.000			9.825			-1.404
243501.000			9.824			-1.403
243600.000			9.825			-1.404
243700.000			9.824			-1.403
243801.000			9.825			-1.404
243900.000			9.825			-1.404
244001.000			9.825			-1.404
244102.000			9.824			-1.403
244201.000			9.825			-1.404
244300.000			9.825			-1.404
244401.000			9.824			-1.403
244500.000			9.824			-1.403
244601.000			9.824			-1.403
244700.000			9.824			-1.403
244800.000			9.824			-1.403
244902.000			9.824			-1.403
245001.000			9.825			-1.404
245101.000			9.824			-1.403
245201.000			9.825			-1.404
245300.000			9.825			-1.404
245400.000			9.825			-1.404
245501.000			9.824			-1.403
245600.000			9.824			-1.403
245700.000			9.823			-1.403
245801.000			9.823			-1.403
245901.000			9.824			-1.403
246001.000			9.823			-1.403
246101.000			9.822			-1.403
246200.000			9.821			-1.403
246300.000			9.822			-1.403
246401.000			9.822			-1.403
246500.000			9.822			-1.403
246600.000			9.822			-1.403
246701.000			9.822			-1.403
246801.000			9.822			-1.403
246901.000			9.822			-1.403
247002.000			9.822			-1.403
247100.000			9.821			-1.403
247200.000			9.822			-1.403
247301.000			9.822			-1.403
247400.000			9.823			-1.403
247500.000			9.822			-1.403
247601.000			9.822			-1.403
247700.000			9.821			-1.403
247802.000			9.821			-1.403
247901.000			9.820			-1.403
248000.000			9.822			-1.403
248101.000			9.821			-1.403
248200.000			9.821			-1.403
248300.000			9.821			-1.403
248401.000			9.820			-1.403
248500.000			9.819			-1.403
248600.000			9.820			-1.403
248702.000			9.820			-1.403
248801.000			9.819			-1.403
248901.000			9.820			-1.403
249001.000			9.820			-1.403
249100.000			9.820			-1.403
249200.000			9.820			-1.403
249301.000			9.819			-1.403
249400.000			9.819			-1.403
249500.000			9.819			-1.403
249601.000			9.818			-1.403
249701.000			9.818			-1.403
249801.000			9.817			-1.402
249902.000			9.819			-1.403
250000.000			9.819			-1.403
250100.000			9.818			-1.403
250201.000			9.818			-1.403
250300.000			9.818			-1.403
250400.000			9.818			-1.403
250501.000			9.818			-1.403
250600.000			9.817			-1.402
250701.000			9.818			-1.403
250802.000			9.817			-1.402
250900.000			9.818			-1.403
251001.000			9.818			-1.403
251100.000			9.818			-1.403
251200.000			9.816			-1.402
251301.000			9.817			-1.402
251400.000			9.818			-1.403
251500.000			9.818			-1.403
251602.000			9.818			-1.403
251701.000			9.818			-1.403
251801.000			9.817			-1.402
251901.000			9.816			-1.402
252000.000			9.815			-1.402
252100.000			9.815			-1.402
252201.000			9.815			-1.402
252300.000			9.816			-1.402
252400.000			9.815			-1.402
252501.000			9.815			-1.402
252601.000			9.816			-1.402
252701.000			9.816			-1.402
252801.000			9.815			-1.402
252900.000			9.814			-1.402
253000.000			9.815			-1.402
253101.000			9.815			-1.402
253200.000			9.815			-1.402
253300.000			9.815			-1.402
253401.000			9.814			-1.402
253501.000			9.814			-1.402
253601.000			9.814			-1.402
253702.000			9.814			-1.402
253800.000			9.814			-1.402
253900.000			9.814			-1.402
254001.000			9.814			-1.402
254100.000			9.814			-1.402
254201.000			9.814			-1.402
254300.000			9.815			-1.402
254400.000			9.814			-1.402
254502.000			9.813			-1.402
254601.000			9.813			-1.402
254700.000			9.814			-1.402
254801.000			9.814			-1.402
254900.000			9.814			-1.402
255000.000			9.813			-1.402
255101.000			9.814			-1.402
255200.000			9.813			-1.402
255300.000			9.813			-1.402
255402.000			9.813			-1.402
255501.000			9.812			-1.402
255601.000			9.811			-1.402
255701.000			9.812			-1.402
255800.000			9.813			-1.402
255900.000			9.812			-1.402
256001.000			9.812			-1.402
256100.000			9.813			-1.402
256200.000			9.813			-1.402
256301.000			9.813			-1.402
256401.000			9.812			-1.402
256501.000			9.811			-1.402
256601.000			9.811			-1.402
256700.000			9.812			-1.402
256800.000			9.811			-1.402
256901.000			9.811			-1.402
257000.000			9.813			-1.402
257100.000			9.813			-1.402
257201.000			9.812			-1.402
257301.000			9.811			-1.402
257402.000			9.811			-1.402
257501.000			9.811			-1.402
257600.000			9.812			-1.402
257701.000			9.812			-1.402
257800.000			9.812			-1.402
257900.000			9.811			-1.402
258001.000			9.812			-1.402
258100.000			9.811			-1.402
258200.000			9.810			-1.401
258302.000			9.810			-1.401
258401.000			9.810			-1.401
258500.000			9.809			-1.401
258601.000			9.809			-1.401
258700.000			9.809			-1.401
258800.000			9.810			-1.401
258901.000			9.808			-1.401
259000.000			9.809			-1.401
259100.000			9.810			-1.401
259202.000			9.809			-1.401
259301.000			9.809			-1.401
259401.000			9.809			-1.401
259501.000			9.810			-1.401
259600.000			9.809			-1.401
259700.000			9.809			-1.401
259801.000			9.809			-1.401
259900.000			9.809			-1.401
260000.000			9.809			-1.401
260101.000			9.808			-1.401
260201.000			9.808			-1.401
260301.000			9.809			-1.401
260402.000			9.808			-1.401
260500.000			9.808			-1.401
260601.000			9.808			-1.401
260700.000			9.808			-1.401
260800.000			9.808			-1.401
260901.000			9.808			-1.401
261000.000			9.807			-1.401
261100.000			9.806			-1.401
261202.000			9.807			-1.401
261301.000			9.807			-1.401
261400.000			9.807			-1.401
261501.000			9.808			-1.401
261600.000			9.807			-1.401
261700.000			9.806			-1.401
261801.000			9.806			-1.401
261900.000			9.807			-1.401
262000.000			9.807			-1.401
262102.000			9.807			-1.401
262201.000			9.808			-1.401
262301.000			9.807			-1.401
262401.000			9.806			-1.401
262500.000			9.805			-1.401
262600.000			9.805			-1.401
262701.000			9.806			-1.401
262800.000			9.807			-1.401
262900.000			9.807			-1.401
263001.000			9.806			-1.401
263101.000			9.806			-1.401
263201.000			9.806			-1.401
263301.000			9.806			-1.401
263400.000			9.806			-1.401
263500.000			9.806			-1.401
263601.000			9.806			-1.401
263700.000			9.806			-1.401
263801.000			9.806			-1.401
263900.000			9.806			-1.401
264001.000			9.805			-1.401
264102.000			9.805			-1.401
264200.000			9.804			-1.401
264300.000			9.805			-1.401
264401.000			9.805			-1.401
264500.000			9.804			-1.401
264600.000			9.805			-1.401
264701.000			9.804			-1.401
264800.000			9.804			-1.401
264901.000			9.805			-1.401
265002.000			9.804			-1.401
265101.000			9.803			-1.400
265200.000			9.803			-1.400
265301.000			9.804			-1.401
265400.000			9.804			-1.401
265500.000			9.803			-1.400
265601.000			9.804			-1.401
265700.000			9.803			-1.400
265800.000			9.804			-1.401
265902.000			9.803			-1.400
266001.000			9.803			-1.400
266100.000			9.803			-1.400
266201.000			9.803			-1.400
266300.000			9.804			-1.401
266400.000			9.804			-1.401
266501.000			9.804			-1.401
266600.000			9.804			-1.401
266700.000			9.803			-1.400
266802.000			9.803			-1.400
266901.000			9.803			-1.400
267001.000			9.802			-1.400
267100.000			9.802			-1.400
267200.000			9.803			-1.400
267301.000			9.803			-1.400
267400.000			9.803			-1.400
267500.000			9.802			-1.400
267601.000			9.802			-1.400
267701.000			9.801			-1.400
267801.000			9.802			-1.400
267901.000			9.803			-1.400
268000.000			9.802			-1.400
268100.000			9.801			-1.400
268201.000			9.801			-1.400
268300.000			9.802			-1.400
268400.000			9.802			-1.400
268501.000			9.801			-1.400
268601.000			9.801			-1.400
268701.000			9.801			-1.400
268802.000			9.802			-1.400
268900.000			9.801			-1.400
269000.000			9.800			-1.400
269101.000			9.801			-1.400
269200.000			9.801			-1.400
269300.000			9.800			-1.400
269401.000			9.800			-1.400
269500.000			9.801			-1.400
269601.000			9.800			-1.400
269702.000			9.800			-1.400
269800.000			9.800			-1.400
269900.000			9.800			-1.400
270001.000			9.800			-1.400
270100.000			9.801			-1.400
270201.000			9.800			-1.400
270300.000			9.800			-1.400
270400.000			9.800			-1.400
270502.000			9.799			-1.400
270601.000			9.800			-1.400
270701.000			9.800			-1.400
270801.000			9.799			-1.400
270900.000			9.799			-1.400
271000.000			9.799			-1.400
271101.000			9.798			-1.400
271200.000			9.798			-1.400
271300.000			9.798			-1.400
271401.000			9.798			-1.400
271501.000			9.798			-1.400
271601.000			9.798			-1.400
271702.000			9.797			-1.400
271800.000			9.797			-1.400
271900.000			9.797			-1.400
272001.000			9.799			-1.400
272100.000			9.799			-1.400
272200.000			9.798			-1.400
272301.000			9.799			-1.400
272400.000			9.798			-1.400
272501.000			9.797			-1.400
272602.000			9.797			-1.400
272701.000			9.798			-1.400
272800.000			9.798			-1.400
272901.000			9.797			-1.400
273000.000			9.797			-1.400
273100.000			9.798			-1.400
273201.000			9.798			-1.400
273300.000			9.796			-1.399
273401.000			9.796			-1.399
273501.000			9.796			-1.399
273601.000			9.797			-1.400
273701.000			9.797			-1.400
273800.000			9.797			-1.400
273900.000			9.796			-1.399
274001.000			9.796			-1.399
274100.000			9.797			-1.400
274200.000			9.796			-1.399
274301.000			9.796			-1.399
274400.000			9.797			-1.400
274501.000			9.796			-1.399
274602.000			9.795			-1.399
274701.000			9.795			-1.399
274800.000			9.796			-1.399
274901.000			9.796			-1.399
275000.000			9.796			-1.399
275100.000			9.796			-1.399
275201.000			9.796			-1.399
275300.000			9.795			-1.399
275400.000			9.795			-1.399
275502.000			9.795			-1.399
275601.000			9.795			-1.399
275701.000			9.795			-1.399
275801.000			9.794			-1.399
275900.000			9.794			-1.399
276000.000			9.795			-1.399
276101.000			9.794			-1.399
276200.000			9.794			-1.399
276300.000			9.794			-1.399
276401.000			9.794			-1.399
276501.000			9.793			-1.399
276602.000			9.794			-1.399
276701.000			9.794			-1.399
276800.000			9.794			-1.399
276901.000			9.793			-1.399
277000.000			9.794			-1.399
277100.000			9.794			-1.399
277201.000			9.793			-1.399
277300.000			9.793			-1.399
277400.000			9.793			-1.399
277502.000			9.793			-1.399
277601.000			9.793			-1.399
277701.000			9.793			-1.399
277801.000			9.793			-1.399
277900.000			9.793			-1.399
278000.000			9.793			-1.399
278101.000			9.793			-1.399
278200.000			9.793			-1.399
278300.000			9.793			-1.399
278401.000			9.792			-1.399
278501.000			9.792			-1.399
278601.000			9.792			-1.399
278702.000			9.791			-1.399
278800.000			9.792			-1.399
278900.000			9.792			-1.399
279001.000			9.791			-1.399
279100.000			9.791			-1.399
279200.000			9.790			-1.399
279301.000			9.790			-1.399
279400.000			9.792			-1.399
279501.000			9.791			-1.399
279602.000			9.792			-1.399
279701.000			9.792			-1.399
279801.000			9.791			-1.399
279900.000			9.791			-1.399
280000.000			9.790			-1.399
280101.000			9.790			-1.399
280200.000			9.791			-1.399
280300.000			9.791			-1.399
280401.000			9.790			-1.399
280501.000			9.791			-1.399
280601.000			9.789			-1.398
280701.000			9.789			-1.398
280800.000			9.790			-1.399
280900.000			9.789			-1.398
281001.000			9.789			-1.398
281100.000			9.789			-1.398
281200.000			9.789			-1.398
281301.000			9.791			-1.399
281400.000			9.791			-1.399
281501.000			9.789			-1.398
281602.000			9.790			-1.399
281700.000			9.789			-1.398
281800.000			9.788			-1.398
281901.000			9.789			-1.398
282000.000			9.789			-1.398
282100.000			9.789			-1.398
282201.000			9.788			-1.398
282300.000			9.788			-1.398
282400.000			9.788			-1.398
282502.000			9.788			-1.398
282601.000			9.787			-1.398
282700.000			9.788			-1.398
282801.000			9.788			-1.398
282900.000			9.789			-1.398
283001.000			9.789			-1.398
283100.000			9.788			-1.398
283200.000			9.788			-1.398
283301.000			9.788			-1.398
283401.000			9.787			-1.398
283501.000			9.788			-1.398
283602.000			9.789			-1.398
283700.000			9.788			-1.398
283800.000			9.787			-1.398
283901.000			9.786			-1.398
284000.000			9.786			-1.398
284100.000			9.786			-1.398
284201.000			9.787			-1.398
284300.000			9.788			-1.398
284401.000			9.788			-1.398
284502.000			9.787			-1.398
284601.000			9.787			-1.398
284700.000			9.788			-1.398
284801.000			9.787			-1.398
284900.000			9.786			-1.398
285000.000			9.786			-1.398
285101.000			9.786			-1.398
285200.000			9.786			-1.398
285300.000			9.787			-1.398
285402.000			9.786			-1.398
285501.000			9.786			-1.398
285601.000			9.786			-1.398
285701.000			9.786			-1.398
285800.000			9.787			-1.398
285900.000			9.786			-1.398
286001.000			9.786			-1.398
286100.000			9.785			-1.398
286201.000			9.785			-1.398
286300.000			9.785			-1.398
286400.000			9.786			-1.398
286502.000			9.786			-1.398
286601.000			9.785			-1.398
286700.000			9.784			-1.398
286801.000			9.785			-1.398
286900.000			9.786			-1.398
287000.000			9.785			-1.398
287101.000			9.785			-1.398
287200.000			9.785			-1.398
287300.000			9.784			-1.398
287402.000			9.784			-1.398
287501.000			9.784			-1.398
287601.000			9.784			-1.398
287701.000			9.785			-1.398
287800.000			9.785			-1.398
287900.000			9.783			-1.398
288001.000			9.784			-1.398
288100.000			9.784			-1.398
288200.000			9.784			-1.398
288301.000			9.784			-1.398
288401.000			9.785			-1.398
288501.000			9.784			-1.398
288602.000			9.785			-1.398
288700.000			9.784			-1.398
288800.000			9.783			-1.398
288901.000			9.782			-1.397
289000.000			9.783			-1.398
289100.000			9.783			-1.398
289201.000			9.782			-1.397
289300.000			9.783			-1.398
289401.000			9.784			-1.398
289501.000			9.782			-1.397
289601.000			9.782			-1.397
289701.000			9.782			-1.397
289800.000			9.783			-1.398
289900.000			9.783			-1.398
290001.000			9.783			-1.398
290100.000			9.782			-1.397
290200.000			9.782			-1.397
290301.000			9.782			-1.397
290401.000			9.781			-1.397
290501.000			9.782			-1.397
290602.000			9.781			-1.397
290700.000			9.782			-1.397
290800.000			9.782			-1.397
290901.000			9.782			-1.397
291000.000			9.781			-1.397
291100.000			9.781			-1.397
291201.000			9.782			-1.397
291300.000			9.781			-1.397
291401.000			9.782			-1.397
291502.000			9.782			-1.397
291600.000			9.782			-1.397
291700.000			9.782			-1.397
291801.000			9.781			-1.397
291900.000			9.780			-1.397
292000.000			9.781			-1.397
292101.000			9.781			-1.397
292200.000			9.781			-1.397
292301.000			9.780			-1.397
292402.000			9.780			-1.397
292501.000			9.780			-1.397
292601.000			9.780			-1.397
292700.000			9.781			-1.397
292800.000			9.780			-1.397
292901.000			9.780			-1.397
293000.000			9.780			-1.397
293100.000			9.780			-1.397
293201.000			9.781			-1.397
293301.000			9.780			-1.397
293401.000			9.780			-1.397
293502.000			9.780			-1.397
293600.000			9.780			-1.397
293700.000			9.780			-1.397
293801.000			9.780			-1.397
293900.000			9.780			-1.397
294000.000			9.780			-1.397
294101.000			9.779			-1.397
294200.000			9.779			-1.397
294301.000			9.779			-1.397
294402.000			9.780			-1.397
294501.000			9.780			-1.397
294600.000			9.778			-1.397
294701.000			9.778			-1.397
294800.000			9.779			-1.397
294900.000			9.778			-1.397
295001.000			9.777			-1.397
295100.000			9.778			-1.397
295200.000			9.778			-1.397
295302.000			9.778			-1.397
295401.000			9.778			-1.397
295501.000			9.779			-1.397
295601.000			9.779			-1.397
295700.000			9.779			-1.397
295801.000			9.778			-1.397
295900.000			9.779			-1.397
296000.000			9.778			-1.397
296101.000			9.779			-1.397
296200.000			9.778			-1.397
296301.000			9.778			-1.397
296402.000			9.778			-1.397
296501.000			9.778			-1.397
296600.000			9.779			-1.397
296701.000			9.779			-1.397
296800.000			9.778			-1.397
296900.000			9.778			-1.397
297001.000			9.778			-1.397
297100.000			9.778			-1.397
297200.000			9.778			-1.397
297302.000			9.778			-1.397
297401.000			9.778			-1.397
297501.000			9.776			-1.397
297601.000			9.776			-1.397
297700.000			9.777			-1.397
297800.000			9.776			-1.397
297901.000			9.776			-1.397
298000.000			9.776			-1.397
298100.000			9.777			-1.397
298201.000			9.776			-1.397
298301.000			9.776			-1.397
298401.000			9.776			-1.397
298502.000			9.776			-1.397
298600.000			9.776			-1.397
298700.000			9.776			-1.397
298801.000			9.776			-1.397
298900.000			9.777			-1.397
299001.000			9.777			-1.397
299100.000			9.776			-1.397
299200.000			9.776			-1.397
299301.000			9.775			-1.396
299401.000			9.775			-1.396
299501.000			9.776			-1.397
299601.000			9.775			-1.396
299700.000			9.775			-1.396
299800.000			9.775			-1.396
299901.000			9.775			-1.396
