# Acquired on 26/01/2024 16:46:49 
# SPIDER: Creep_-9mm_GRPCNT1454A-2
# CREEP MEASUREMENT

# time [ms]		force [N]		stiffness [N/mm]
1.000			38.270			-4.252
104.000			38.778			-4.309
204.000			38.666			-4.296
305.000			38.330			-4.259
404.000			38.060			-4.229
504.000			37.844			-4.205
605.000			37.507			-4.167
704.000			37.367			-4.152
804.000			37.244			-4.138
904.000			37.132			-4.126
1004.000			37.030			-4.114
1104.000			36.935			-4.104
1204.000			36.848			-4.094
1304.000			36.690			-4.077
1405.000			36.619			-4.069
1504.000			36.552			-4.061
1603.000			36.489			-4.054
1705.000			36.429			-4.048
1804.000			36.372			-4.041
1904.000			36.319			-4.035
2005.000			36.267			-4.030
2104.000			36.169			-4.019
2204.000			36.123			-4.014
2304.000			36.080			-4.009
2404.000			36.038			-4.004
2504.000			35.997			-4.000
2605.000			35.958			-3.995
2704.000			35.920			-3.991
2803.000			35.847			-3.983
2905.000			35.814			-3.979
3004.000			35.781			-3.976
3104.000			35.749			-3.972
3205.000			35.717			-3.969
3304.000			35.685			-3.965
3404.000			35.656			-3.962
3504.000			35.600			-3.956
3604.000			35.572			-3.952
3704.000			35.544			-3.949
3805.000			35.518			-3.946
3904.000			35.493			-3.944
4003.000			35.468			-3.941
4105.000			35.444			-3.938
4204.000			35.421			-3.936
4304.000			35.373			-3.930
4405.000			35.351			-3.928
4504.000			35.329			-3.925
4605.000			35.308			-3.923
4703.000			35.286			-3.921
4804.000			35.265			-3.918
4905.000			35.247			-3.916
5004.000			35.205			-3.912
5104.000			35.186			-3.910
5205.000			35.168			-3.908
5304.000			35.149			-3.905
5403.000			35.131			-3.903
5505.000			35.113			-3.901
5604.000			35.094			-3.899
5704.000			35.061			-3.896
5805.000			35.044			-3.894
5903.000			35.028			-3.892
6004.000			35.011			-3.890
6105.000			34.996			-3.888
6204.000			34.980			-3.887
6304.000			34.964			-3.885
6405.000			34.934			-3.882
6504.000			34.919			-3.880
6603.000			34.904			-3.878
6705.000			34.889			-3.877
6804.000			34.876			-3.875
6904.000			34.862			-3.874
7005.000			34.846			-3.872
7104.000			34.832			-3.870
7204.000			34.806			-3.867
7304.000			34.794			-3.866
7404.000			34.780			-3.864
7504.000			34.767			-3.863
7604.000			34.755			-3.862
7704.000			34.742			-3.860
7805.000			34.730			-3.859
7904.000			34.704			-3.856
8003.000			34.692			-3.855
8105.000			34.680			-3.853
8204.000			34.670			-3.852
8304.000			34.657			-3.851
8405.000			34.645			-3.849
8503.000			34.635			-3.848
8604.000			34.612			-3.846
8705.000			34.601			-3.845
8804.000			34.591			-3.843
8904.000			34.580			-3.842
9005.000			34.568			-3.841
9104.000			34.556			-3.840
9203.000			34.546			-3.838
9305.000			34.537			-3.837
9404.000			34.516			-3.835
9504.000			34.506			-3.834
9605.000			34.496			-3.833
9704.000			34.487			-3.832
9804.000			34.476			-3.831
9904.000			34.467			-3.830
10004.000			34.458			-3.829
10104.000			34.439			-3.827
10205.000			34.429			-3.825
10304.000			34.420			-3.824
10403.000			34.411			-3.823
10505.000			34.402			-3.822
10604.000			34.393			-3.821
10704.000			34.384			-3.820
10805.000			34.366			-3.818
10904.000			34.357			-3.817
11005.000			34.348			-3.816
11103.000			34.340			-3.816
11204.000			34.332			-3.815
11305.000			34.322			-3.814
11404.000			34.315			-3.813
11504.000			34.306			-3.812
11605.000			34.290			-3.810
11704.000			34.282			-3.809
11803.000			34.274			-3.808
11905.000			34.265			-3.807
12004.000			34.258			-3.806
12104.000			34.251			-3.806
12205.000			34.243			-3.805
12304.000			34.228			-3.803
12404.000			34.219			-3.802
12505.000			34.212			-3.801
12604.000			34.204			-3.800
12704.000			34.197			-3.800
12805.000			34.190			-3.799
12904.000			34.183			-3.798
13003.000			34.168			-3.796
13105.000			34.160			-3.796
13204.000			34.153			-3.795
13304.000			34.146			-3.794
13405.000			34.139			-3.793
13504.000			34.132			-3.792
13604.000			34.125			-3.792
13704.000			34.112			-3.790
13804.000			34.104			-3.789
13904.000			34.097			-3.789
14004.000			34.091			-3.788
14104.000			34.084			-3.787
14205.000			34.076			-3.786
14304.000			34.070			-3.786
14403.000			34.064			-3.785
14505.000			34.052			-3.784
14604.000			34.046			-3.783
14704.000			34.037			-3.782
14805.000			34.031			-3.781
14904.000			34.025			-3.781
15004.000			34.019			-3.780
15104.000			34.012			-3.779
15204.000			33.999			-3.778
15304.000			33.993			-3.777
15405.000			33.987			-3.776
15504.000			33.982			-3.776
15604.000			33.976			-3.775
15705.000			33.971			-3.775
15803.000			33.966			-3.774
15904.000			33.953			-3.773
16005.000			33.948			-3.772
16104.000			33.941			-3.771
16204.000			33.935			-3.771
16304.000			33.929			-3.770
16404.000			33.923			-3.769
16503.000			33.917			-3.769
16605.000			33.912			-3.768
16704.000			33.900			-3.767
16804.000			33.894			-3.766
16905.000			33.889			-3.765
17003.000			33.884			-3.765
17104.000			33.878			-3.764
17203.000			33.873			-3.764
17304.000			33.868			-3.763
17405.000			33.857			-3.762
17504.000			33.852			-3.761
17604.000			33.846			-3.761
17704.000			33.841			-3.760
17804.000			33.836			-3.760
17903.000			33.831			-3.759
18005.000			33.828			-3.759
18104.000			33.816			-3.757
18204.000			33.810			-3.757
18305.000			33.805			-3.756
18403.000			33.799			-3.755
18504.000			33.794			-3.755
18605.000			33.790			-3.754
18704.000			33.785			-3.754
18804.000			33.774			-3.753
18905.000			33.770			-3.752
19004.000			33.765			-3.752
19104.000			33.760			-3.751
19205.000			33.755			-3.751
19303.000			33.751			-3.750
19404.000			33.745			-3.749
19505.000			33.740			-3.749
19604.000			33.732			-3.748
19704.000			33.727			-3.747
19804.000			33.722			-3.747
19904.000			33.718			-3.746
20003.000			33.712			-3.746
20105.000			33.708			-3.745
20204.000			33.704			-3.745
20304.000			33.695			-3.744
20405.000			33.690			-3.743
20503.000			33.686			-3.743
20605.000			33.681			-3.742
20704.000			33.677			-3.742
20804.000			33.673			-3.741
20905.000			33.668			-3.741
21004.000			33.659			-3.740
21104.000			33.654			-3.739
21204.000			33.649			-3.739
21304.000			33.645			-3.738
21404.000			33.640			-3.738
21505.000			33.637			-3.737
21604.000			33.632			-3.737
21704.000			33.628			-3.736
21805.000			33.618			-3.735
21903.000			33.615			-3.735
22004.000			33.612			-3.735
22105.000			33.607			-3.734
22204.000			33.603			-3.734
22304.000			33.597			-3.733
22404.000			33.593			-3.733
22504.000			33.587			-3.732
22604.000			33.582			-3.731
22705.000			33.577			-3.731
22804.000			33.573			-3.730
22904.000			33.569			-3.730
23005.000			33.566			-3.730
23103.000			33.562			-3.729
23204.000			33.554			-3.728
23305.000			33.550			-3.728
23404.000			33.545			-3.727
23504.000			33.542			-3.727
23604.000			33.538			-3.726
23704.000			33.535			-3.726
23803.000			33.532			-3.726
23904.000			33.522			-3.725
24004.000			33.519			-3.724
24105.000			33.515			-3.724
24204.000			33.512			-3.724
24304.000			33.508			-3.723
24405.000			33.505			-3.723
24503.000			33.500			-3.722
24604.000			33.495			-3.722
24705.000			33.488			-3.721
24804.000			33.483			-3.720
24904.000			33.481			-3.720
25005.000			33.477			-3.720
25104.000			33.474			-3.719
25203.000			33.469			-3.719
25305.000			33.465			-3.718
25404.000			33.458			-3.718
25504.000			33.455			-3.717
25605.000			33.451			-3.717
25704.000			33.448			-3.716
25804.000			33.445			-3.716
25904.000			33.440			-3.716
26004.000			33.436			-3.715
26104.000			33.429			-3.714
26205.000			33.427			-3.714
26304.000			33.423			-3.714
26404.000			33.420			-3.713
26505.000			33.416			-3.713
26604.000			33.413			-3.713
26704.000			33.409			-3.712
26805.000			33.406			-3.712
26904.000			33.398			-3.711
27005.000			33.394			-3.710
27103.000			33.391			-3.710
27204.000			33.387			-3.710
27305.000			33.385			-3.709
27404.000			33.382			-3.709
27504.000			33.378			-3.709
27605.000			33.372			-3.708
27704.000			33.369			-3.708
27803.000			33.366			-3.707
27905.000			33.362			-3.707
28004.000			33.358			-3.706
28104.000			33.355			-3.706
28205.000			33.352			-3.706
28304.000			33.346			-3.705
28404.000			33.342			-3.705
28504.000			33.339			-3.704
28604.000			33.336			-3.704
28704.000			33.333			-3.704
28805.000			33.330			-3.703
28904.000			33.325			-3.703
29004.000			33.321			-3.702
29105.000			33.317			-3.702
29203.000			33.313			-3.701
29304.000			33.310			-3.701
29405.000			33.308			-3.701
29504.000			33.305			-3.701
29604.000			33.300			-3.700
29705.000			33.297			-3.700
29804.000			33.291			-3.699
29903.000			33.288			-3.699
30005.000			33.285			-3.698
30104.000			33.282			-3.698
30205.000			33.279			-3.698
30304.000			33.276			-3.697
30404.000			33.273			-3.697
30505.000			33.267			-3.696
30603.000			33.264			-3.696
30704.000			33.261			-3.696
30805.000			33.258			-3.695
30904.000			33.256			-3.695
31004.000			33.253			-3.695
31105.000			33.250			-3.694
31204.000			33.244			-3.694
31303.000			33.241			-3.693
31405.000			33.238			-3.693
31504.000			33.236			-3.693
31604.000			33.233			-3.693
31705.000			33.230			-3.692
31803.000			33.226			-3.692
31904.000			33.224			-3.692
32005.000			33.220			-3.691
32104.000			33.217			-3.691
32204.000			33.213			-3.690
32305.000			33.211			-3.690
32404.000			33.208			-3.690
32503.000			33.204			-3.689
32605.000			33.201			-3.689
32704.000			33.197			-3.689
32804.000			33.194			-3.688
32905.000			33.191			-3.688
33003.000			33.188			-3.688
33104.000			33.185			-3.687
33205.000			33.182			-3.687
33304.000			33.180			-3.687
33405.000			33.175			-3.686
33504.000			33.172			-3.686
33604.000			33.169			-3.685
33704.000			33.167			-3.685
33804.000			33.164			-3.685
33904.000			33.162			-3.685
34005.000			33.159			-3.684
34104.000			33.153			-3.684
34204.000			33.152			-3.684
34305.000			33.149			-3.683
34403.000			33.145			-3.683
34504.000			33.142			-3.682
34605.000			33.139			-3.682
34704.000			33.137			-3.682
34804.000			33.135			-3.682
34905.000			33.129			-3.681
35004.000			33.127			-3.681
35103.000			33.125			-3.681
35205.000			33.122			-3.680
35304.000			33.119			-3.680
35404.000			33.117			-3.680
35505.000			33.115			-3.679
35603.000			33.108			-3.679
35704.000			33.105			-3.678
35805.000			33.103			-3.678
35904.000			33.101			-3.678
36004.000			33.098			-3.678
36105.000			33.096			-3.677
36204.000			33.094			-3.677
36303.000			33.089			-3.677
36405.000			33.086			-3.676
36504.000			33.082			-3.676
36605.000			33.080			-3.676
36704.000			33.077			-3.675
36804.000			33.075			-3.675
36905.000			33.074			-3.675
37003.000			33.071			-3.675
37104.000			33.066			-3.674
37205.000			33.063			-3.674
37304.000			33.061			-3.673
37404.000			33.058			-3.673
37505.000			33.055			-3.673
37604.000			33.052			-3.672
37703.000			33.050			-3.672
37805.000			33.046			-3.672
37904.000			33.043			-3.671
38004.000			33.040			-3.671
38105.000			33.038			-3.671
38204.000			33.035			-3.671
38304.000			33.033			-3.670
38405.000			33.030			-3.670
38504.000			33.025			-3.669
38604.000			33.023			-3.669
38705.000			33.021			-3.669
38804.000			33.018			-3.669
38903.000			33.017			-3.669
39005.000			33.014			-3.668
39104.000			33.011			-3.668
39204.000			33.007			-3.667
39305.000			33.005			-3.667
39404.000			33.003			-3.667
39504.000			33.001			-3.667
39603.000			32.999			-3.667
39704.000			32.997			-3.666
39805.000			32.995			-3.666
39904.000			32.991			-3.666
40004.000			32.986			-3.665
40105.000			32.984			-3.665
40204.000			32.981			-3.665
40303.000			32.979			-3.664
40405.000			32.977			-3.664
40504.000			32.975			-3.664
40604.000			32.973			-3.664
40705.000			32.968			-3.663
40804.000			32.966			-3.663
40904.000			32.964			-3.663
41004.000			32.961			-3.662
41104.000			32.959			-3.662
41204.000			32.956			-3.662
41305.000			32.954			-3.662
41404.000			32.950			-3.661
41504.000			32.948			-3.661
41605.000			32.946			-3.661
41703.000			32.944			-3.660
41804.000			32.942			-3.660
41905.000			32.940			-3.660
42004.000			32.938			-3.660
42104.000			32.933			-3.659
42204.000			32.930			-3.659
42304.000			32.927			-3.659
42403.000			32.926			-3.658
42505.000			32.923			-3.658
42604.000			32.922			-3.658
42704.000			32.920			-3.658
42805.000			32.918			-3.658
42903.000			32.912			-3.657
43005.000			32.911			-3.657
43104.000			32.908			-3.656
43204.000			32.906			-3.656
43305.000			32.905			-3.656
43404.000			32.901			-3.656
43504.000			32.900			-3.656
43604.000			32.896			-3.655
43704.000			32.895			-3.655
43804.000			32.893			-3.655
43905.000			32.891			-3.655
44004.000			32.888			-3.654
44104.000			32.887			-3.654
44205.000			32.885			-3.654
44303.000			32.882			-3.654
44404.000			32.879			-3.653
44505.000			32.877			-3.653
44604.000			32.875			-3.653
44704.000			32.875			-3.653
44805.000			32.873			-3.653
44904.000			32.871			-3.652
45003.000			32.868			-3.652
45105.000			32.866			-3.652
45204.000			32.863			-3.651
45304.000			32.860			-3.651
45405.000			32.859			-3.651
45504.000			32.857			-3.651
45604.000			32.855			-3.651
45704.000			32.854			-3.650
45804.000			32.849			-3.650
45904.000			32.847			-3.650
46004.000			32.845			-3.649
46104.000			32.843			-3.649
46205.000			32.842			-3.649
46304.000			32.840			-3.649
46403.000			32.838			-3.649
46505.000			32.834			-3.648
46604.000			32.832			-3.648
46704.000			32.829			-3.648
46805.000			32.828			-3.648
46904.000			32.826			-3.647
47004.000			32.823			-3.647
47104.000			32.821			-3.647
47204.000			32.820			-3.647
47304.000			32.816			-3.646
47405.000			32.813			-3.646
47504.000			32.811			-3.646
47604.000			32.809			-3.645
47705.000			32.808			-3.645
47803.000			32.805			-3.645
47904.000			32.804			-3.645
48005.000			32.799			-3.644
48104.000			32.797			-3.644
48204.000			32.796			-3.644
48305.000			32.794			-3.644
48404.000			32.792			-3.644
48503.000			32.790			-3.643
48605.000			32.788			-3.643
48704.000			32.784			-3.643
48804.000			32.781			-3.642
48905.000			32.778			-3.642
49004.000			32.777			-3.642
49104.000			32.776			-3.642
49203.000			32.774			-3.642
49304.000			32.771			-3.641
49405.000			32.768			-3.641
49504.000			32.766			-3.641
49604.000			32.764			-3.640
49705.000			32.762			-3.640
49804.000			32.760			-3.640
49903.000			32.759			-3.640
50005.000			32.757			-3.640
50104.000			32.755			-3.639
50204.000			32.751			-3.639
50305.000			32.749			-3.639
50404.000			32.746			-3.638
50504.000			32.745			-3.638
50604.000			32.744			-3.638
50704.000			32.742			-3.638
50804.000			32.740			-3.638
50905.000			32.735			-3.637
51004.000			32.734			-3.637
51104.000			32.732			-3.637
51205.000			32.730			-3.637
51303.000			32.729			-3.637
51404.000			32.727			-3.636
51505.000			32.725			-3.636
51604.000			32.723			-3.636
51704.000			32.720			-3.636
51805.000			32.718			-3.635
51904.000			32.716			-3.635
52003.000			32.714			-3.635
52105.000			32.713			-3.635
52204.000			32.711			-3.635
52304.000			32.709			-3.634
52405.000			32.706			-3.634
52503.000			32.704			-3.634
52605.000			32.703			-3.634
52704.000			32.701			-3.633
52804.000			32.700			-3.633
52905.000			32.697			-3.633
53004.000			32.695			-3.633
53104.000			32.692			-3.632
53204.000			32.690			-3.632
53304.000			32.688			-3.632
53404.000			32.687			-3.632
53505.000			32.685			-3.632
53604.000			32.683			-3.631
53704.000			32.682			-3.631
53805.000			32.678			-3.631
53903.000			32.676			-3.631
54004.000			32.674			-3.630
54105.000			32.672			-3.630
54204.000			32.671			-3.630
54304.000			32.670			-3.630
54405.000			32.668			-3.630
54504.000			32.665			-3.629
54603.000			32.663			-3.629
54705.000			32.661			-3.629
54804.000			32.660			-3.629
54904.000			32.658			-3.629
55005.000			32.656			-3.628
55104.000			32.655			-3.628
55204.000			32.653			-3.628
55304.000			32.649			-3.628
55404.000			32.648			-3.628
55504.000			32.645			-3.627
55604.000			32.645			-3.627
55704.000			32.644			-3.627
55803.000			32.642			-3.627
55904.000			32.640			-3.627
56004.000			32.635			-3.626
56105.000			32.635			-3.626
56204.000			32.633			-3.626
56304.000			32.631			-3.626
56405.000			32.629			-3.625
56503.000			32.628			-3.625
56604.000			32.626			-3.625
56705.000			32.625			-3.625
56804.000			32.622			-3.625
56904.000			32.619			-3.624
57005.000			32.618			-3.624
57104.000			32.616			-3.624
57203.000			32.614			-3.624
57305.000			32.614			-3.624
57404.000			32.612			-3.624
57504.000			32.609			-3.623
57605.000			32.608			-3.623
57704.000			32.606			-3.623
57804.000			32.604			-3.623
57904.000			32.603			-3.623
58004.000			32.602			-3.622
58104.000			32.600			-3.622
58205.000			32.597			-3.622
58304.000			32.596			-3.622
58404.000			32.594			-3.622
58505.000			32.592			-3.621
58603.000			32.589			-3.621
58704.000			32.588			-3.621
58805.000			32.587			-3.621
58904.000			32.583			-3.620
59005.000			32.582			-3.620
59104.000			32.580			-3.620
59204.000			32.579			-3.620
59304.000			32.579			-3.620
59404.000			32.576			-3.620
59504.000			32.574			-3.619
59605.000			32.573			-3.619
59704.000			32.571			-3.619
59804.000			32.570			-3.619
59905.000			32.568			-3.619
60003.000			32.566			-3.618
60104.000			32.565			-3.618
60205.000			32.563			-3.618
60304.000			32.562			-3.618
60404.000			32.557			-3.617
60505.000			32.556			-3.617
60604.000			32.555			-3.617
60703.000			32.554			-3.617
60805.000			32.553			-3.617
60904.000			32.551			-3.617
61004.000			32.548			-3.616
61105.000			32.546			-3.616
61204.000			32.545			-3.616
61304.000			32.543			-3.616
61404.000			32.542			-3.616
61504.000			32.540			-3.616
61604.000			32.539			-3.615
61705.000			32.537			-3.615
61804.000			32.534			-3.615
61903.000			32.533			-3.615
62005.000			32.532			-3.615
62104.000			32.531			-3.615
62205.000			32.530			-3.614
62304.000			32.528			-3.614
62404.000			32.526			-3.614
62505.000			32.525			-3.614
62603.000			32.521			-3.613
62704.000			32.520			-3.613
62805.000			32.519			-3.613
62904.000			32.517			-3.613
63004.000			32.515			-3.613
63105.000			32.513			-3.613
63204.000			32.511			-3.612
63303.000			32.510			-3.612
63405.000			32.508			-3.612
63504.000			32.507			-3.612
63604.000			32.506			-3.612
63705.000			32.505			-3.612
63804.000			32.503			-3.611
63904.000			32.502			-3.611
64004.000			32.500			-3.611
64104.000			32.498			-3.611
64204.000			32.497			-3.611
64305.000			32.494			-3.610
64404.000			32.493			-3.610
64504.000			32.492			-3.610
64605.000			32.491			-3.610
64703.000			32.487			-3.610
64804.000			32.486			-3.610
64905.000			32.485			-3.609
65004.000			32.484			-3.609
65104.000			32.482			-3.609
65204.000			32.480			-3.609
65304.000			32.479			-3.609
65403.000			32.477			-3.609
65504.000			32.476			-3.608
65604.000			32.475			-3.608
65705.000			32.474			-3.608
65804.000			32.472			-3.608
65904.000			32.470			-3.608
66005.000			32.470			-3.608
66103.000			32.469			-3.608
66204.000			32.465			-3.607
66305.000			32.464			-3.607
66404.000			32.464			-3.607
66504.000			32.463			-3.607
66605.000			32.462			-3.607
66704.000			32.459			-3.607
66803.000			32.458			-3.606
66905.000			32.455			-3.606
67004.000			32.454			-3.606
67104.000			32.452			-3.606
67205.000			32.451			-3.606
67304.000			32.449			-3.605
67404.000			32.448			-3.605
67504.000			32.446			-3.605
67604.000			32.445			-3.605
67704.000			32.442			-3.605
67805.000			32.440			-3.604
67904.000			32.440			-3.604
68004.000			32.438			-3.604
68105.000			32.436			-3.604
68203.000			32.436			-3.604
68304.000			32.434			-3.604
68405.000			32.431			-3.603
68504.000			32.430			-3.603
68605.000			32.430			-3.603
68704.000			32.429			-3.603
68804.000			32.427			-3.603
68904.000			32.425			-3.603
69004.000			32.424			-3.603
69104.000			32.421			-3.602
69205.000			32.419			-3.602
69304.000			32.418			-3.602
69404.000			32.417			-3.602
69505.000			32.416			-3.602
69603.000			32.413			-3.601
69704.000			32.412			-3.601
69805.000			32.410			-3.601
69904.000			32.409			-3.601
70004.000			32.408			-3.601
70104.000			32.406			-3.601
70204.000			32.405			-3.601
70303.000			32.403			-3.600
70405.000			32.402			-3.600
70504.000			32.401			-3.600
70604.000			32.398			-3.600
70705.000			32.396			-3.600
70803.000			32.396			-3.600
70904.000			32.395			-3.599
71005.000			32.394			-3.599
71104.000			32.392			-3.599
71204.000			32.390			-3.599
71305.000			32.388			-3.599
71404.000			32.386			-3.598
71503.000			32.385			-3.598
71605.000			32.384			-3.598
71704.000			32.383			-3.598
71805.000			32.382			-3.598
71904.000			32.381			-3.598
72004.000			32.378			-3.598
72105.000			32.376			-3.597
72203.000			32.375			-3.597
72304.000			32.374			-3.597
72405.000			32.372			-3.597
72504.000			32.371			-3.597
72604.000			32.371			-3.597
72705.000			32.369			-3.597
72804.000			32.367			-3.596
72903.000			32.365			-3.596
73005.000			32.363			-3.596
73104.000			32.362			-3.596
73204.000			32.362			-3.596
73305.000			32.360			-3.596
73404.000			32.358			-3.595
73504.000			32.356			-3.595
73604.000			32.354			-3.595
73704.000			32.353			-3.595
73804.000			32.352			-3.595
73905.000			32.351			-3.595
74004.000			32.350			-3.594
74104.000			32.348			-3.594
74205.000			32.346			-3.594
74303.000			32.344			-3.594
74404.000			32.344			-3.594
74505.000			32.343			-3.594
74604.000			32.341			-3.593
74704.000			32.340			-3.593
74804.000			32.339			-3.593
74904.000			32.337			-3.593
75003.000			32.336			-3.593
75104.000			32.334			-3.593
75204.000			32.333			-3.593
75305.000			32.332			-3.592
75404.000			32.331			-3.592
75504.000			32.329			-3.592
75605.000			32.328			-3.592
75703.000			32.326			-3.592
75804.000			32.325			-3.592
75905.000			32.324			-3.592
76004.000			32.322			-3.591
76104.000			32.322			-3.591
76205.000			32.320			-3.591
76304.000			32.319			-3.591
76403.000			32.315			-3.591
76505.000			32.315			-3.591
76604.000			32.314			-3.590
76704.000			32.312			-3.590
76805.000			32.311			-3.590
76904.000			32.310			-3.590
77004.000			32.309			-3.590
77104.000			32.307			-3.590
77204.000			32.306			-3.590
77304.000			32.304			-3.589
77405.000			32.303			-3.589
77504.000			32.303			-3.589
77603.000			32.302			-3.589
77705.000			32.300			-3.589
77804.000			32.299			-3.589
77904.000			32.296			-3.588
78005.000			32.296			-3.588
78104.000			32.294			-3.588
78205.000			32.292			-3.588
78304.000			32.292			-3.588
78404.000			32.291			-3.588
78504.000			32.290			-3.588
78604.000			32.287			-3.587
78704.000			32.286			-3.587
78805.000			32.285			-3.587
78904.000			32.284			-3.587
79004.000			32.282			-3.587
79105.000			32.281			-3.587
79203.000			32.280			-3.587
79304.000			32.278			-3.586
79405.000			32.276			-3.586
79504.000			32.276			-3.586
79604.000			32.276			-3.586
79705.000			32.274			-3.586
79804.000			32.273			-3.586
79903.000			32.271			-3.586
80005.000			32.270			-3.586
80104.000			32.268			-3.585
80204.000			32.267			-3.585
80305.000			32.266			-3.585
80404.000			32.265			-3.585
80504.000			32.264			-3.585
80604.000			32.263			-3.585
80704.000			32.262			-3.585
80804.000			32.258			-3.584
80905.000			32.256			-3.584
81004.000			32.256			-3.584
81104.000			32.256			-3.584
81205.000			32.254			-3.584
81303.000			32.254			-3.584
81405.000			32.253			-3.584
81504.000			32.249			-3.583
81604.000			32.249			-3.583
81705.000			32.249			-3.583
81804.000			32.247			-3.583
81904.000			32.246			-3.583
82004.000			32.245			-3.583
82104.000			32.244			-3.583
82204.000			32.241			-3.582
82305.000			32.241			-3.582
82404.000			32.239			-3.582
82504.000			32.238			-3.582
82605.000			32.238			-3.582
82703.000			32.237			-3.582
82804.000			32.235			-3.582
82905.000			32.232			-3.581
83004.000			32.231			-3.581
83104.000			32.230			-3.581
83204.000			32.229			-3.581
83304.000			32.228			-3.581
83403.000			32.228			-3.581
83505.000			32.228			-3.581
83604.000			32.225			-3.581
83704.000			32.222			-3.580
83805.000			32.222			-3.580
83903.000			32.220			-3.580
84004.000			32.219			-3.580
84105.000			32.219			-3.580
84204.000			32.219			-3.580
84304.000			32.218			-3.580
84404.000			32.214			-3.579
84504.000			32.213			-3.579
84603.000			32.211			-3.579
84704.000			32.212			-3.579
84804.000			32.211			-3.579
84905.000			32.209			-3.579
85004.000			32.208			-3.579
85104.000			32.205			-3.578
85205.000			32.205			-3.578
85303.000			32.205			-3.578
85404.000			32.203			-3.578
85505.000			32.201			-3.578
85604.000			32.200			-3.578
85704.000			32.200			-3.578
85805.000			32.199			-3.578
85904.000			32.196			-3.577
86003.000			32.196			-3.577
86105.000			32.196			-3.577
86204.000			32.194			-3.577
86304.000			32.192			-3.577
86405.000			32.191			-3.577
86504.000			32.191			-3.577
86604.000			32.188			-3.576
86704.000			32.186			-3.576
86804.000			32.184			-3.576
86904.000			32.184			-3.576
87005.000			32.184			-3.576
87104.000			32.184			-3.576
87204.000			32.182			-3.576
87305.000			32.181			-3.576
87403.000			32.181			-3.576
87504.000			32.179			-3.575
87605.000			32.178			-3.575
87704.000			32.176			-3.575
87805.000			32.175			-3.575
87904.000			32.174			-3.575
88004.000			32.173			-3.575
88104.000			32.170			-3.574
88204.000			32.169			-3.574
88304.000			32.169			-3.574
88405.000			32.167			-3.574
88504.000			32.167			-3.574
88604.000			32.166			-3.574
88705.000			32.165			-3.574
88803.000			32.164			-3.574
88904.000			32.162			-3.574
89004.000			32.160			-3.573
89104.000			32.159			-3.573
89204.000			32.159			-3.573
89305.000			32.158			-3.573
89404.000			32.157			-3.573
89504.000			32.155			-3.573
89605.000			32.154			-3.573
89703.000			32.153			-3.573
89804.000			32.152			-3.572
89905.000			32.151			-3.572
90004.000			32.150			-3.572
90104.000			32.149			-3.572
90205.000			32.147			-3.572
90304.000			32.145			-3.572
90403.000			32.144			-3.572
90505.000			32.144			-3.572
90604.000			32.142			-3.571
90704.000			32.141			-3.571
90805.000			32.141			-3.571
90904.000			32.139			-3.571
91005.000			32.137			-3.571
91103.000			32.137			-3.571
91204.000			32.135			-3.571
91305.000			32.134			-3.570
91404.000			32.132			-3.570
91504.000			32.132			-3.570
91604.000			32.131			-3.570
91704.000			32.130			-3.570
91804.000			32.130			-3.570
91905.000			32.129			-3.570
92004.000			32.126			-3.570
92104.000			32.125			-3.569
92205.000			32.125			-3.569
92303.000			32.123			-3.569
92404.000			32.122			-3.569
92505.000			32.121			-3.569
92604.000			32.121			-3.569
92704.000			32.119			-3.569
92805.000			32.118			-3.569
92904.000			32.117			-3.569
93003.000			32.116			-3.568
93105.000			32.114			-3.568
93204.000			32.114			-3.568
93304.000			32.112			-3.568
93405.000			32.111			-3.568
93504.000			32.110			-3.568
93604.000			32.109			-3.568
93704.000			32.107			-3.567
93804.000			32.107			-3.567
93904.000			32.106			-3.567
94004.000			32.104			-3.567
94104.000			32.103			-3.567
94203.000			32.102			-3.567
94304.000			32.101			-3.567
94404.000			32.100			-3.567
94505.000			32.098			-3.566
94604.000			32.098			-3.566
94704.000			32.097			-3.566
94805.000			32.096			-3.566
94903.000			32.095			-3.566
95004.000			32.094			-3.566
95105.000			32.094			-3.566
95204.000			32.093			-3.566
95304.000			32.092			-3.566
95405.000			32.091			-3.566
95504.000			32.091			-3.566
95603.000			32.089			-3.565
95705.000			32.088			-3.565
95804.000			32.088			-3.565
95904.000			32.087			-3.565
96005.000			32.087			-3.565
96104.000			32.085			-3.565
96204.000			32.084			-3.565
96304.000			32.083			-3.565
96404.000			32.083			-3.565
96503.000			32.082			-3.565
96605.000			32.082			-3.565
96704.000			32.080			-3.564
96804.000			32.079			-3.564
96905.000			32.078			-3.564
97003.000			32.077			-3.564
97104.000			32.076			-3.564
97205.000			32.075			-3.564
97304.000			32.075			-3.564
97405.000			32.074			-3.564
97504.000			32.072			-3.564
97604.000			32.069			-3.563
97704.000			32.069			-3.563
97804.000			32.069			-3.563
97903.000			32.069			-3.563
98005.000			32.067			-3.563
98104.000			32.065			-3.563
98204.000			32.063			-3.563
98305.000			32.062			-3.562
98404.000			32.061			-3.562
98504.000			32.060			-3.562
98604.000			32.058			-3.562
98704.000			32.057			-3.562
98804.000			32.057			-3.562
98905.000			32.056			-3.562
99004.000			32.053			-3.561
99104.000			32.052			-3.561
99205.000			32.052			-3.561
99303.000			32.052			-3.561
99404.000			32.050			-3.561
99505.000			32.049			-3.561
99604.000			32.048			-3.561
99704.000			32.046			-3.561
99805.000			32.046			-3.561
99904.000			32.044			-3.560
100003.000			32.043			-3.560
100105.000			32.041			-3.560
100204.000			32.040			-3.560
100304.000			32.040			-3.560
100405.000			32.038			-3.560
100504.000			32.037			-3.560
100605.000			32.035			-3.559
100703.000			32.035			-3.559
100804.000			32.035			-3.559
100905.000			32.034			-3.559
101004.000			32.033			-3.559
101104.000			32.033			-3.559
101204.000			32.031			-3.559
101304.000			32.030			-3.559
101403.000			32.029			-3.559
101505.000			32.029			-3.559
101604.000			32.028			-3.559
101704.000			32.028			-3.559
101805.000			32.028			-3.559
101903.000			32.025			-3.558
102004.000			32.025			-3.558
102104.000			32.025			-3.558
102204.000			32.024			-3.558
102304.000			32.023			-3.558
102405.000			32.023			-3.558
102504.000			32.022			-3.558
102604.000			32.020			-3.558
102705.000			32.019			-3.558
102803.000			32.018			-3.558
102904.000			32.017			-3.557
103005.000			32.017			-3.557
103104.000			32.015			-3.557
103204.000			32.015			-3.557
103304.000			32.014			-3.557
103404.000			32.014			-3.557
103504.000			32.013			-3.557
103604.000			32.012			-3.557
103704.000			32.011			-3.557
103805.000			32.011			-3.557
103904.000			32.010			-3.557
104003.000			32.010			-3.557
104105.000			32.006			-3.556
104204.000			32.006			-3.556
104304.000			32.006			-3.556
104405.000			32.005			-3.556
104504.000			32.005			-3.556
104604.000			32.003			-3.556
104704.000			32.003			-3.556
104804.000			32.002			-3.556
104904.000			32.000			-3.556
105005.000			31.999			-3.555
105104.000			31.998			-3.555
105204.000			31.997			-3.555
105305.000			31.996			-3.555
105403.000			31.996			-3.555
105504.000			31.995			-3.555
105605.000			31.992			-3.555
105704.000			31.992			-3.555
105804.000			31.992			-3.555
105905.000			31.991			-3.555
106004.000			31.990			-3.554
106104.000			31.989			-3.554
106205.000			31.987			-3.554
106303.000			31.987			-3.554
106404.000			31.986			-3.554
106505.000			31.985			-3.554
106604.000			31.984			-3.554
106704.000			31.983			-3.554
106804.000			31.982			-3.554
106904.000			31.981			-3.553
107003.000			31.979			-3.553
107104.000			31.978			-3.553
107204.000			31.976			-3.553
107305.000			31.975			-3.553
107404.000			31.975			-3.553
107504.000			31.974			-3.553
107605.000			31.973			-3.553
107704.000			31.972			-3.552
107804.000			31.969			-3.552
107904.000			31.968			-3.552
108004.000			31.967			-3.552
108104.000			31.967			-3.552
108205.000			31.967			-3.552
108304.000			31.965			-3.552
108404.000			31.964			-3.552
108505.000			31.961			-3.551
108603.000			31.961			-3.551
108704.000			31.960			-3.551
108805.000			31.959			-3.551
108904.000			31.958			-3.551
109004.000			31.957			-3.551
109105.000			31.956			-3.551
109204.000			31.954			-3.550
109303.000			31.953			-3.550
109405.000			31.951			-3.550
109504.000			31.951			-3.550
109604.000			31.951			-3.550
109705.000			31.949			-3.550
109804.000			31.947			-3.550
109904.000			31.947			-3.550
110004.000			31.946			-3.550
110104.000			31.944			-3.549
110203.000			31.943			-3.549
110304.000			31.943			-3.549
110404.000			31.944			-3.549
110505.000			31.943			-3.549
110604.000			31.941			-3.549
110704.000			31.939			-3.549
110805.000			31.938			-3.549
110903.000			31.938			-3.549
111004.000			31.937			-3.549
111105.000			31.936			-3.548
111204.000			31.935			-3.548
111304.000			31.935			-3.548
111405.000			31.933			-3.548
111504.000			31.932			-3.548
111603.000			31.932			-3.548
111705.000			31.930			-3.548
111804.000			31.930			-3.548
111904.000			31.928			-3.548
112005.000			31.928			-3.548
112104.000			31.928			-3.548
112204.000			31.926			-3.547
112304.000			31.926			-3.547
112404.000			31.924			-3.547
112504.000			31.923			-3.547
112605.000			31.922			-3.547
112704.000			31.922			-3.547
112804.000			31.921			-3.547
112905.000			31.919			-3.547
113003.000			31.919			-3.547
113104.000			31.918			-3.546
113205.000			31.916			-3.546
113304.000			31.914			-3.546
113405.000			31.915			-3.546
113504.000			31.914			-3.546
113604.000			31.913			-3.546
113704.000			31.912			-3.546
113804.000			31.911			-3.546
113903.000			31.910			-3.546
114005.000			31.910			-3.546
114104.000			31.909			-3.545
114204.000			31.908			-3.545
114305.000			31.906			-3.545
114404.000			31.907			-3.545
114504.000			31.907			-3.545
114604.000			31.905			-3.545
114704.000			31.904			-3.545
114804.000			31.903			-3.545
114905.000			31.903			-3.545
115004.000			31.900			-3.544
115104.000			31.900			-3.544
115205.000			31.899			-3.544
115303.000			31.897			-3.544
115404.000			31.896			-3.544
115505.000			31.896			-3.544
115604.000			31.895			-3.544
115704.000			31.894			-3.544
115805.000			31.892			-3.544
115904.000			31.892			-3.544
116003.000			31.891			-3.543
116105.000			31.891			-3.543
116203.000			31.891			-3.543
116304.000			31.889			-3.543
116405.000			31.889			-3.543
116504.000			31.888			-3.543
116605.000			31.887			-3.543
116704.000			31.886			-3.543
116804.000			31.886			-3.543
116904.000			31.885			-3.543
117004.000			31.885			-3.543
117104.000			31.884			-3.543
117205.000			31.882			-3.542
117304.000			31.881			-3.542
117404.000			31.879			-3.542
117505.000			31.879			-3.542
117604.000			31.878			-3.542
117704.000			31.877			-3.542
117804.000			31.876			-3.542
117904.000			31.875			-3.542
118004.000			31.874			-3.542
118105.000			31.874			-3.542
118204.000			31.872			-3.541
118304.000			31.871			-3.541
118405.000			31.871			-3.541
118503.000			31.870			-3.541
118604.000			31.870			-3.541
118705.000			31.869			-3.541
118804.000			31.868			-3.541
118904.000			31.867			-3.541
119005.000			31.866			-3.541
119104.000			31.865			-3.541
119203.000			31.864			-3.540
119305.000			31.863			-3.540
119404.000			31.861			-3.540
119504.000			31.860			-3.540
119605.000			31.858			-3.540
119704.000			31.857			-3.540
119805.000			31.857			-3.540
119904.000			31.857			-3.540
120004.000			31.856			-3.540
120104.000			31.854			-3.539
120204.000			31.853			-3.539
120304.000			31.853			-3.539
120405.000			31.852			-3.539
120504.000			31.851			-3.539
120604.000			31.851			-3.539
120705.000			31.850			-3.539
120803.000			31.850			-3.539
120904.000			31.847			-3.539
121005.000			31.846			-3.538
121104.000			31.846			-3.538
121204.000			31.845			-3.538
121305.000			31.845			-3.538
121404.000			31.843			-3.538
121503.000			31.842			-3.538
121605.000			31.840			-3.538
121704.000			31.840			-3.538
121804.000			31.840			-3.538
121905.000			31.838			-3.538
122004.000			31.838			-3.538
122104.000			31.837			-3.537
122204.000			31.836			-3.537
122304.000			31.835			-3.537
122404.000			31.834			-3.537
122505.000			31.832			-3.537
122604.000			31.831			-3.537
122704.000			31.831			-3.537
122805.000			31.830			-3.537
122904.000			31.830			-3.537
123005.000			31.828			-3.536
123103.000			31.827			-3.536
123204.000			31.827			-3.536
123305.000			31.826			-3.536
123404.000			31.826			-3.536
123504.000			31.824			-3.536
123605.000			31.824			-3.536
123704.000			31.824			-3.536
123803.000			31.824			-3.536
123905.000			31.822			-3.536
124004.000			31.821			-3.536
124104.000			31.820			-3.536
124205.000			31.819			-3.535
124304.000			31.819			-3.535
124404.000			31.817			-3.535
124504.000			31.816			-3.535
124604.000			31.816			-3.535
124704.000			31.815			-3.535
124805.000			31.814			-3.535
124904.000			31.813			-3.535
125004.000			31.812			-3.535
125105.000			31.810			-3.534
125203.000			31.810			-3.534
125304.000			31.809			-3.534
125405.000			31.808			-3.534
125504.000			31.807			-3.534
125604.000			31.806			-3.534
125705.000			31.806			-3.534
125804.000			31.805			-3.534
125903.000			31.805			-3.534
126005.000			31.803			-3.534
126104.000			31.803			-3.534
126205.000			31.803			-3.534
126304.000			31.802			-3.534
126404.000			31.801			-3.533
126505.000			31.801			-3.533
126603.000			31.800			-3.533
126704.000			31.800			-3.533
126805.000			31.798			-3.533
126904.000			31.797			-3.533
127004.000			31.796			-3.533
127105.000			31.796			-3.533
127204.000			31.796			-3.533
127303.000			31.795			-3.533
127405.000			31.795			-3.533
127503.000			31.794			-3.533
127604.000			31.794			-3.533
127705.000			31.792			-3.532
127804.000			31.792			-3.532
127904.000			31.792			-3.532
128005.000			31.791			-3.532
128104.000			31.790			-3.532
128203.000			31.790			-3.532
128305.000			31.790			-3.532
128404.000			31.788			-3.532
128504.000			31.788			-3.532
128605.000			31.786			-3.532
128704.000			31.786			-3.532
128804.000			31.786			-3.532
128904.000			31.786			-3.532
129004.000			31.785			-3.532
129103.000			31.783			-3.531
129205.000			31.783			-3.531
129304.000			31.781			-3.531
129405.000			31.781			-3.531
129504.000			31.782			-3.531
129604.000			31.779			-3.531
129705.000			31.778			-3.531
129803.000			31.778			-3.531
129904.000			31.778			-3.531
130005.000			31.777			-3.531
130104.000			31.776			-3.531
130204.000			31.775			-3.531
130305.000			31.773			-3.530
130404.000			31.772			-3.530
130503.000			31.772			-3.530
130605.000			31.772			-3.530
130704.000			31.771			-3.530
130804.000			31.770			-3.530
130905.000			31.769			-3.530
131004.000			31.769			-3.530
131104.000			31.766			-3.530
131204.000			31.766			-3.530
131304.000			31.764			-3.529
131403.000			31.763			-3.529
131505.000			31.762			-3.529
131604.000			31.762			-3.529
131704.000			31.762			-3.529
131805.000			31.761			-3.529
131904.000			31.759			-3.529
132004.000			31.759			-3.529
132104.000			31.758			-3.529
132204.000			31.756			-3.528
132303.000			31.755			-3.528
132405.000			31.755			-3.528
132504.000			31.754			-3.528
132605.000			31.753			-3.528
132704.000			31.753			-3.528
132804.000			31.751			-3.528
132905.000			31.749			-3.528
133003.000			31.749			-3.528
133104.000			31.750			-3.528
133204.000			31.749			-3.528
133304.000			31.748			-3.528
133404.000			31.747			-3.527
133505.000			31.745			-3.527
133604.000			31.744			-3.527
133704.000			31.745			-3.527
133805.000			31.745			-3.527
133903.000			31.743			-3.527
134004.000			31.742			-3.527
134105.000			31.742			-3.527
134204.000			31.741			-3.527
134304.000			31.739			-3.527
134405.000			31.739			-3.527
134504.000			31.738			-3.526
134604.000			31.738			-3.526
134705.000			31.737			-3.526
134803.000			31.736			-3.526
134904.000			31.737			-3.526
135005.000			31.737			-3.526
135104.000			31.735			-3.526
135204.000			31.735			-3.526
135305.000			31.734			-3.526
135404.000			31.733			-3.526
135504.000			31.733			-3.526
135605.000			31.733			-3.526
135703.000			31.732			-3.526
135805.000			31.731			-3.526
135904.000			31.730			-3.526
136004.000			31.729			-3.525
136105.000			31.729			-3.525
136204.000			31.729			-3.525
136304.000			31.728			-3.525
136404.000			31.727			-3.525
136504.000			31.726			-3.525
136603.000			31.725			-3.525
136705.000			31.725			-3.525
136804.000			31.724			-3.525
136904.000			31.723			-3.525
137005.000			31.723			-3.525
137104.000			31.723			-3.525
137204.000			31.722			-3.525
137304.000			31.721			-3.525
137404.000			31.720			-3.524
137503.000			31.719			-3.524
137605.000			31.719			-3.524
137704.000			31.717			-3.524
137804.000			31.716			-3.524
137905.000			31.716			-3.524
138004.000			31.715			-3.524
138104.000			31.716			-3.524
138204.000			31.715			-3.524
138304.000			31.713			-3.524
138403.000			31.713			-3.524
138505.000			31.712			-3.524
138604.000			31.712			-3.524
138704.000			31.711			-3.523
138805.000			31.710			-3.523
138904.000			31.710			-3.523
139005.000			31.709			-3.523
139103.000			31.708			-3.523
139204.000			31.708			-3.523
139304.000			31.707			-3.523
139404.000			31.707			-3.523
139504.000			31.705			-3.523
139605.000			31.703			-3.523
139704.000			31.704			-3.523
139804.000			31.703			-3.523
139905.000			31.702			-3.522
140003.000			31.701			-3.522
140104.000			31.701			-3.522
140204.000			31.700			-3.522
140304.000			31.700			-3.522
140404.000			31.698			-3.522
140505.000			31.696			-3.522
140604.000			31.696			-3.522
140704.000			31.695			-3.522
140805.000			31.694			-3.522
140903.000			31.693			-3.521
141004.000			31.692			-3.521
141105.000			31.691			-3.521
141204.000			31.690			-3.521
141304.000			31.689			-3.521
141405.000			31.687			-3.521
141504.000			31.686			-3.521
141604.000			31.686			-3.521
141705.000			31.685			-3.521
141803.000			31.685			-3.521
141904.000			31.684			-3.520
142005.000			31.683			-3.520
142104.000			31.682			-3.520
142205.000			31.681			-3.520
142304.000			31.681			-3.520
142404.000			31.680			-3.520
142505.000			31.680			-3.520
142604.000			31.680			-3.520
142703.000			31.677			-3.520
142805.000			31.677			-3.520
142904.000			31.676			-3.520
143004.000			31.676			-3.520
143105.000			31.675			-3.519
143204.000			31.674			-3.519
143304.000			31.674			-3.519
143405.000			31.672			-3.519
143504.000			31.671			-3.519
143603.000			31.671			-3.519
143705.000			31.671			-3.519
143804.000			31.670			-3.519
143904.000			31.669			-3.519
144005.000			31.667			-3.519
144104.000			31.669			-3.519
144204.000			31.665			-3.518
144305.000			31.664			-3.518
144404.000			31.663			-3.518
144503.000			31.663			-3.518
144605.000			31.664			-3.518
144704.000			31.663			-3.518
144804.000			31.662			-3.518
144905.000			31.662			-3.518
145004.000			31.660			-3.518
145104.000			31.659			-3.518
145204.000			31.658			-3.518
145304.000			31.657			-3.517
145403.000			31.657			-3.517
145504.000			31.656			-3.517
145604.000			31.657			-3.517
145705.000			31.657			-3.517
145804.000			31.654			-3.517
145904.000			31.653			-3.517
146005.000			31.653			-3.517
146104.000			31.653			-3.517
146204.000			31.652			-3.517
146304.000			31.650			-3.517
146404.000			31.649			-3.517
146504.000			31.648			-3.516
146605.000			31.648			-3.516
146704.000			31.649			-3.517
146804.000			31.648			-3.516
146905.000			31.647			-3.516
147004.000			31.647			-3.516
147104.000			31.645			-3.516
147204.000			31.643			-3.516
147304.000			31.643			-3.516
147404.000			31.643			-3.516
147505.000			31.642			-3.516
147604.000			31.641			-3.516
147704.000			31.641			-3.516
147805.000			31.639			-3.515
147904.000			31.638			-3.515
148004.000			31.638			-3.515
148104.000			31.637			-3.515
148204.000			31.637			-3.515
148304.000			31.637			-3.515
148404.000			31.637			-3.515
148504.000			31.635			-3.515
148605.000			31.635			-3.515
148704.000			31.634			-3.515
148804.000			31.634			-3.515
148905.000			31.633			-3.515
149003.000			31.631			-3.515
149104.000			31.631			-3.515
149205.000			31.631			-3.515
149304.000			31.630			-3.514
149404.000			31.629			-3.514
149505.000			31.629			-3.514
149604.000			31.628			-3.514
149704.000			31.627			-3.514
149805.000			31.626			-3.514
149903.000			31.625			-3.514
150004.000			31.625			-3.514
150104.000			31.624			-3.514
150204.000			31.623			-3.514
150304.000			31.622			-3.514
150405.000			31.623			-3.514
150504.000			31.622			-3.514
150604.000			31.621			-3.513
150705.000			31.618			-3.513
150803.000			31.619			-3.513
150904.000			31.619			-3.513
151005.000			31.618			-3.513
151104.000			31.617			-3.513
151204.000			31.616			-3.513
151305.000			31.616			-3.513
151404.000			31.615			-3.513
151504.000			31.616			-3.513
151605.000			31.615			-3.513
151703.000			31.613			-3.513
151805.000			31.613			-3.513
151904.000			31.612			-3.512
152004.000			31.611			-3.512
152105.000			31.610			-3.512
152204.000			31.611			-3.512
152304.000			31.611			-3.512
152404.000			31.609			-3.512
152504.000			31.609			-3.512
152603.000			31.608			-3.512
152705.000			31.607			-3.512
152804.000			31.606			-3.512
152904.000			31.605			-3.512
153005.000			31.605			-3.512
153104.000			31.604			-3.512
153204.000			31.604			-3.512
153304.000			31.603			-3.511
153404.000			31.602			-3.511
153504.000			31.601			-3.511
153605.000			31.601			-3.511
153704.000			31.601			-3.511
153804.000			31.600			-3.511
153905.000			31.599			-3.511
154004.000			31.599			-3.511
154104.000			31.598			-3.511
154204.000			31.597			-3.511
154304.000			31.596			-3.511
154404.000			31.595			-3.511
154505.000			31.594			-3.510
154604.000			31.594			-3.510
154704.000			31.594			-3.510
154805.000			31.593			-3.510
154904.000			31.593			-3.510
155005.000			31.592			-3.510
155103.000			31.590			-3.510
155204.000			31.589			-3.510
155305.000			31.588			-3.510
155404.000			31.588			-3.510
155504.000			31.588			-3.510
155605.000			31.589			-3.510
155704.000			31.588			-3.510
155804.000			31.587			-3.510
155905.000			31.585			-3.509
156003.000			31.585			-3.509
156104.000			31.584			-3.509
156204.000			31.584			-3.509
156304.000			31.583			-3.509
156404.000			31.583			-3.509
156505.000			31.582			-3.509
156604.000			31.581			-3.509
156704.000			31.581			-3.509
156805.000			31.581			-3.509
156903.000			31.579			-3.509
157004.000			31.578			-3.509
157104.000			31.577			-3.509
157204.000			31.577			-3.509
157304.000			31.576			-3.508
157405.000			31.575			-3.508
157504.000			31.575			-3.508
157604.000			31.576			-3.508
157705.000			31.575			-3.508
157803.000			31.573			-3.508
157904.000			31.572			-3.508
158003.000			31.572			-3.508
158104.000			31.571			-3.508
158205.000			31.570			-3.508
158304.000			31.570			-3.508
158404.000			31.569			-3.508
158505.000			31.569			-3.508
158604.000			31.569			-3.508
158704.000			31.566			-3.507
158805.000			31.566			-3.507
158903.000			31.568			-3.508
159004.000			31.567			-3.507
159105.000			31.567			-3.507
159204.000			31.566			-3.507
159304.000			31.565			-3.507
159405.000			31.563			-3.507
159504.000			31.562			-3.507
159604.000			31.562			-3.507
159705.000			31.561			-3.507
159803.000			31.562			-3.507
159904.000			31.560			-3.507
160005.000			31.559			-3.507
160104.000			31.559			-3.507
160204.000			31.559			-3.507
160305.000			31.558			-3.506
160404.000			31.557			-3.506
160504.000			31.557			-3.506
160605.000			31.557			-3.506
160703.000			31.556			-3.506
160804.000			31.555			-3.506
160905.000			31.554			-3.506
161004.000			31.552			-3.506
161104.000			31.552			-3.506
161204.000			31.553			-3.506
161304.000			31.552			-3.506
161403.000			31.551			-3.506
161504.000			31.551			-3.506
161603.000			31.548			-3.505
161705.000			31.548			-3.505
161804.000			31.548			-3.505
161904.000			31.547			-3.505
162005.000			31.546			-3.505
162104.000			31.545			-3.505
162204.000			31.545			-3.505
162304.000			31.544			-3.505
162404.000			31.544			-3.505
162503.000			31.543			-3.505
162605.000			31.543			-3.505
162704.000			31.542			-3.505
162804.000			31.543			-3.505
162905.000			31.542			-3.505
163004.000			31.540			-3.504
163104.000			31.540			-3.504
163204.000			31.539			-3.504
163304.000			31.538			-3.504
163404.000			31.538			-3.504
163505.000			31.538			-3.504
163604.000			31.537			-3.504
163704.000			31.536			-3.504
163805.000			31.536			-3.504
163904.000			31.535			-3.504
164004.000			31.535			-3.504
164104.000			31.534			-3.504
164204.000			31.534			-3.504
164304.000			31.534			-3.504
164404.000			31.533			-3.504
164504.000			31.532			-3.504
164605.000			31.531			-3.503
164704.000			31.529			-3.503
164804.000			31.529			-3.503
164905.000			31.529			-3.503
165003.000			31.527			-3.503
165104.000			31.527			-3.503
165205.000			31.526			-3.503
165304.000			31.525			-3.503
165404.000			31.525			-3.503
165505.000			31.525			-3.503
165604.000			31.525			-3.503
165704.000			31.524			-3.503
165805.000			31.523			-3.503
165903.000			31.523			-3.503
166004.000			31.522			-3.502
166105.000			31.521			-3.502
166204.000			31.520			-3.502
166304.000			31.519			-3.502
166405.000			31.519			-3.502
166504.000			31.519			-3.502
166604.000			31.518			-3.502
166705.000			31.517			-3.502
166803.000			31.516			-3.502
166904.000			31.516			-3.502
167005.000			31.516			-3.502
167104.000			31.516			-3.502
167204.000			31.514			-3.502
167305.000			31.513			-3.501
167404.000			31.512			-3.501
167504.000			31.512			-3.501
167605.000			31.511			-3.501
167703.000			31.510			-3.501
167805.000			31.510			-3.501
167904.000			31.510			-3.501
168004.000			31.510			-3.501
168105.000			31.508			-3.501
168204.000			31.508			-3.501
168304.000			31.508			-3.501
168405.000			31.507			-3.501
168504.000			31.506			-3.501
168603.000			31.506			-3.501
168705.000			31.506			-3.501
168804.000			31.506			-3.501
168904.000			31.505			-3.501
169005.000			31.504			-3.500
169104.000			31.504			-3.500
169204.000			31.503			-3.500
169305.000			31.502			-3.500
169404.000			31.501			-3.500
169503.000			31.501			-3.500
169605.000			31.500			-3.500
169704.000			31.499			-3.500
169804.000			31.498			-3.500
169905.000			31.498			-3.500
170004.000			31.498			-3.500
170104.000			31.498			-3.500
170205.000			31.497			-3.500
170304.000			31.496			-3.500
170403.000			31.496			-3.500
170505.000			31.495			-3.499
170604.000			31.495			-3.499
170704.000			31.495			-3.499
170805.000			31.493			-3.499
170904.000			31.493			-3.499
171005.000			31.493			-3.499
171104.000			31.492			-3.499
171204.000			31.491			-3.499
171304.000			31.490			-3.499
171404.000			31.488			-3.499
171503.000			31.489			-3.499
171605.000			31.489			-3.499
171704.000			31.488			-3.499
171804.000			31.488			-3.499
171905.000			31.486			-3.498
172004.000			31.486			-3.498
172104.000			31.486			-3.498
172204.000			31.485			-3.498
172304.000			31.484			-3.498
172403.000			31.484			-3.498
172505.000			31.482			-3.498
172604.000			31.482			-3.498
172704.000			31.482			-3.498
172805.000			31.481			-3.498
172904.000			31.481			-3.498
173004.000			31.481			-3.498
173104.000			31.479			-3.498
173204.000			31.479			-3.498
173303.000			31.478			-3.498
173405.000			31.478			-3.498
173504.000			31.477			-3.497
173604.000			31.476			-3.497
173705.000			31.476			-3.497
173804.000			31.476			-3.497
173904.000			31.476			-3.497
174003.000			31.474			-3.497
174104.000			31.473			-3.497
174203.000			31.473			-3.497
174304.000			31.473			-3.497
174404.000			31.473			-3.497
174505.000			31.472			-3.497
174604.000			31.470			-3.497
174704.000			31.471			-3.497
174805.000			31.471			-3.497
174903.000			31.470			-3.497
175004.000			31.468			-3.496
175104.000			31.467			-3.496
175204.000			31.467			-3.496
175304.000			31.467			-3.496
175405.000			31.466			-3.496
175504.000			31.465			-3.496
175604.000			31.465			-3.496
175705.000			31.465			-3.496
175804.000			31.465			-3.496
175904.000			31.464			-3.496
176004.000			31.464			-3.496
176104.000			31.464			-3.496
176204.000			31.462			-3.496
176305.000			31.461			-3.496
176404.000			31.461			-3.496
176504.000			31.460			-3.496
176605.000			31.460			-3.496
176704.000			31.459			-3.495
176804.000			31.457			-3.495
176904.000			31.458			-3.495
177004.000			31.457			-3.495
177104.000			31.455			-3.495
177204.000			31.455			-3.495
177304.000			31.455			-3.495
177405.000			31.454			-3.495
177504.000			31.454			-3.495
177604.000			31.454			-3.495
177705.000			31.454			-3.495
177803.000			31.453			-3.495
177904.000			31.452			-3.495
178005.000			31.452			-3.495
178104.000			31.451			-3.495
178204.000			31.452			-3.495
178305.000			31.451			-3.495
178404.000			31.449			-3.494
178504.000			31.449			-3.494
178605.000			31.448			-3.494
178703.000			31.447			-3.494
178804.000			31.446			-3.494
178905.000			31.445			-3.494
179004.000			31.445			-3.494
179104.000			31.446			-3.494
179205.000			31.445			-3.494
179304.000			31.444			-3.494
179404.000			31.443			-3.494
179505.000			31.443			-3.494
179603.000			31.443			-3.494
179704.000			31.441			-3.493
179805.000			31.439			-3.493
179904.000			31.438			-3.493
180004.000			31.438			-3.493
180105.000			31.439			-3.493
180204.000			31.438			-3.493
180304.000			31.439			-3.493
180405.000			31.437			-3.493
180503.000			31.436			-3.493
180605.000			31.437			-3.493
180704.000			31.436			-3.493
180804.000			31.436			-3.493
180905.000			31.436			-3.493
181004.000			31.434			-3.493
181104.000			31.432			-3.492
181205.000			31.431			-3.492
181304.000			31.432			-3.492
181403.000			31.432			-3.492
181505.000			31.430			-3.492
181604.000			31.429			-3.492
181704.000			31.429			-3.492
181805.000			31.429			-3.492
181904.000			31.430			-3.492
182004.000			31.429			-3.492
182104.000			31.428			-3.492
182204.000			31.427			-3.492
182303.000			31.427			-3.492
182405.000			31.426			-3.492
182504.000			31.426			-3.492
182604.000			31.426			-3.492
182705.000			31.424			-3.492
182804.000			31.422			-3.491
182904.000			31.423			-3.491
183004.000			31.423			-3.491
183104.000			31.422			-3.491
183203.000			31.421			-3.491
183305.000			31.420			-3.491
183404.000			31.420			-3.491
183504.000			31.420			-3.491
183605.000			31.419			-3.491
183704.000			31.420			-3.491
183805.000			31.418			-3.491
183903.000			31.417			-3.491
184004.000			31.417			-3.491
184105.000			31.417			-3.491
184204.000			31.415			-3.491
184304.000			31.415			-3.491
184405.000			31.415			-3.491
184504.000			31.415			-3.491
184604.000			31.414			-3.490
184705.000			31.415			-3.491
184803.000			31.415			-3.491
184904.000			31.411			-3.490
185005.000			31.411			-3.490
185104.000			31.411			-3.490
185204.000			31.411			-3.490
185305.000			31.410			-3.490
185404.000			31.410			-3.490
185504.000			31.410			-3.490
185605.000			31.408			-3.490
185703.000			31.407			-3.490
185804.000			31.407			-3.490
185905.000			31.407			-3.490
186004.000			31.408			-3.490
186104.000			31.407			-3.490
186205.000			31.406			-3.490
186304.000			31.405			-3.489
186404.000			31.404			-3.489
186505.000			31.403			-3.489
186603.000			31.403			-3.489
186704.000			31.402			-3.489
186805.000			31.402			-3.489
186904.000			31.402			-3.489
187005.000			31.401			-3.489
187104.000			31.400			-3.489
187204.000			31.400			-3.489
187305.000			31.399			-3.489
187404.000			31.399			-3.489
187503.000			31.398			-3.489
187605.000			31.398			-3.489
187704.000			31.396			-3.488
187804.000			31.396			-3.488
187905.000			31.395			-3.488
188004.000			31.395			-3.488
188104.000			31.395			-3.488
188205.000			31.395			-3.488
188304.000			31.394			-3.488
188403.000			31.393			-3.488
188505.000			31.392			-3.488
188603.000			31.392			-3.488
188704.000			31.391			-3.488
188805.000			31.390			-3.488
188904.000			31.390			-3.488
189004.000			31.390			-3.488
189105.000			31.389			-3.488
189204.000			31.389			-3.488
189304.000			31.387			-3.487
189405.000			31.388			-3.488
189503.000			31.388			-3.488
189604.000			31.387			-3.487
189705.000			31.385			-3.487
189804.000			31.385			-3.487
189904.000			31.385			-3.487
190004.000			31.383			-3.487
190104.000			31.382			-3.487
190205.000			31.381			-3.487
190304.000			31.382			-3.487
190403.000			31.382			-3.487
190505.000			31.382			-3.487
190604.000			31.381			-3.487
190704.000			31.380			-3.487
190805.000			31.379			-3.487
190904.000			31.379			-3.487
191004.000			31.379			-3.487
191105.000			31.378			-3.486
191204.000			31.378			-3.486
191303.000			31.378			-3.486
191405.000			31.377			-3.486
191504.000			31.376			-3.486
191604.000			31.375			-3.486
191705.000			31.375			-3.486
191804.000			31.374			-3.486
191904.000			31.374			-3.486
192005.000			31.374			-3.486
192104.000			31.373			-3.486
192203.000			31.371			-3.486
192305.000			31.372			-3.486
192404.000			31.371			-3.486
192504.000			31.371			-3.486
192605.000			31.371			-3.486
192704.000			31.370			-3.486
192804.000			31.369			-3.485
192904.000			31.368			-3.485
193004.000			31.368			-3.485
193103.000			31.369			-3.485
193205.000			31.367			-3.485
193304.000			31.366			-3.485
193405.000			31.367			-3.485
193504.000			31.366			-3.485
193604.000			31.366			-3.485
193705.000			31.364			-3.485
193803.000			31.363			-3.485
193904.000			31.363			-3.485
194004.000			31.363			-3.485
194104.000			31.363			-3.485
194204.000			31.362			-3.485
194305.000			31.362			-3.485
194404.000			31.360			-3.484
194504.000			31.360			-3.484
194605.000			31.359			-3.484
194704.000			31.359			-3.484
194804.000			31.358			-3.484
194904.000			31.358			-3.484
195004.000			31.357			-3.484
195104.000			31.358			-3.484
195205.000			31.358			-3.484
195304.000			31.357			-3.484
195404.000			31.355			-3.484
195505.000			31.355			-3.484
195604.000			31.355			-3.484
195704.000			31.354			-3.484
195804.000			31.353			-3.484
195904.000			31.352			-3.484
196004.000			31.352			-3.484
196105.000			31.352			-3.484
196204.000			31.352			-3.484
196304.000			31.352			-3.484
196405.000			31.350			-3.483
196504.000			31.350			-3.483
196605.000			31.349			-3.483
196703.000			31.349			-3.483
196804.000			31.348			-3.483
196905.000			31.348			-3.483
197004.000			31.348			-3.483
197104.000			31.348			-3.483
197205.000			31.347			-3.483
197304.000			31.346			-3.483
197404.000			31.345			-3.483
197505.000			31.344			-3.483
197603.000			31.344			-3.483
197704.000			31.344			-3.483
197804.000			31.343			-3.483
197904.000			31.343			-3.483
198004.000			31.343			-3.483
198105.000			31.342			-3.482
198204.000			31.342			-3.482
198304.000			31.341			-3.482
198405.000			31.340			-3.482
198503.000			31.340			-3.482
198604.000			31.339			-3.482
198704.000			31.338			-3.482
198804.000			31.338			-3.482
198904.000			31.337			-3.482
199005.000			31.336			-3.482
199104.000			31.336			-3.482
199204.000			31.335			-3.482
199305.000			31.336			-3.482
199404.000			31.335			-3.482
199504.000			31.334			-3.482
199603.000			31.333			-3.481
199704.000			31.333			-3.481
199805.000			31.332			-3.481
199904.000			31.332			-3.481
200004.000			31.332			-3.481
200105.000			31.332			-3.481
200204.000			31.332			-3.481
200303.000			31.331			-3.481
200405.000			31.330			-3.481
200503.000			31.330			-3.481
200604.000			31.328			-3.481
200705.000			31.327			-3.481
200804.000			31.327			-3.481
200904.000			31.327			-3.481
201005.000			31.326			-3.481
201104.000			31.325			-3.481
201203.000			31.325			-3.481
201305.000			31.326			-3.481
201404.000			31.325			-3.481
201504.000			31.324			-3.480
201605.000			31.324			-3.480
201704.000			31.323			-3.480
201804.000			31.323			-3.480
201904.000			31.322			-3.480
202004.000			31.322			-3.480
202104.000			31.321			-3.480
202205.000			31.321			-3.480
202304.000			31.321			-3.480
202404.000			31.319			-3.480
202505.000			31.318			-3.480
202604.000			31.318			-3.480
202704.000			31.317			-3.480
202803.000			31.318			-3.480
202904.000			31.317			-3.480
203005.000			31.317			-3.480
203104.000			31.316			-3.480
203204.000			31.315			-3.479
203305.000			31.315			-3.479
203404.000			31.315			-3.479
203503.000			31.314			-3.479
203605.000			31.313			-3.479
203703.000			31.314			-3.479
203804.000			31.314			-3.479
203905.000			31.313			-3.479
204004.000			31.312			-3.479
204104.000			31.312			-3.479
204205.000			31.310			-3.479
204304.000			31.310			-3.479
204403.000			31.310			-3.479
204505.000			31.309			-3.479
204604.000			31.308			-3.479
204704.000			31.308			-3.479
204805.000			31.307			-3.479
204904.000			31.307			-3.479
205004.000			31.306			-3.478
205104.000			31.306			-3.478
205204.000			31.306			-3.478
205303.000			31.305			-3.478
205405.000			31.305			-3.478
205504.000			31.304			-3.478
205604.000			31.304			-3.478
205705.000			31.304			-3.478
205804.000			31.304			-3.478
205904.000			31.302			-3.478
206003.000			31.302			-3.478
206104.000			31.302			-3.478
206205.000			31.301			-3.478
206304.000			31.300			-3.478
206404.000			31.300			-3.478
206505.000			31.299			-3.478
206604.000			31.300			-3.478
206703.000			31.299			-3.478
206805.000			31.297			-3.477
206903.000			31.297			-3.477
207004.000			31.297			-3.477
207105.000			31.297			-3.477
207204.000			31.297			-3.477
207304.000			31.296			-3.477
207405.000			31.295			-3.477
207504.000			31.294			-3.477
207603.000			31.293			-3.477
207705.000			31.294			-3.477
207803.000			31.292			-3.477
207904.000			31.292			-3.477
208005.000			31.292			-3.477
208104.000			31.291			-3.477
208204.000			31.291			-3.477
208305.000			31.290			-3.477
208404.000			31.290			-3.477
208503.000			31.290			-3.477
208605.000			31.288			-3.476
208704.000			31.287			-3.476
208804.000			31.287			-3.476
208905.000			31.287			-3.476
209004.000			31.287			-3.476
209104.000			31.286			-3.476
209204.000			31.285			-3.476
209304.000			31.285			-3.476
209403.000			31.285			-3.476
209504.000			31.284			-3.476
209604.000			31.284			-3.476
209705.000			31.283			-3.476
209804.000			31.284			-3.476
209904.000			31.283			-3.476
210005.000			31.282			-3.476
210104.000			31.282			-3.476
210204.000			31.281			-3.476
210304.000			31.282			-3.476
210404.000			31.279			-3.475
210504.000			31.277			-3.475
210605.000			31.279			-3.475
210704.000			31.279			-3.475
210804.000			31.278			-3.475
210905.000			31.279			-3.475
211003.000			31.277			-3.475
211104.000			31.277			-3.475
211205.000			31.276			-3.475
211304.000			31.274			-3.475
211404.000			31.274			-3.475
211505.000			31.274			-3.475
211604.000			31.274			-3.475
211704.000			31.274			-3.475
211805.000			31.273			-3.475
211903.000			31.272			-3.475
212004.000			31.272			-3.475
212105.000			31.272			-3.475
212204.000			31.271			-3.475
212304.000			31.272			-3.475
212404.000			31.271			-3.475
212504.000			31.270			-3.474
212603.000			31.269			-3.474
212704.000			31.268			-3.474
212803.000			31.268			-3.474
212905.000			31.268			-3.474
213004.000			31.268			-3.474
213104.000			31.268			-3.474
213205.000			31.266			-3.474
213304.000			31.266			-3.474
213404.000			31.265			-3.474
213504.000			31.265			-3.474
213604.000			31.265			-3.474
213704.000			31.264			-3.474
213805.000			31.263			-3.474
213904.000			31.264			-3.474
214004.000			31.262			-3.474
214105.000			31.261			-3.473
214204.000			31.261			-3.473
214304.000			31.260			-3.473
214404.000			31.260			-3.473
214504.000			31.259			-3.473
214604.000			31.259			-3.473
214705.000			31.260			-3.473
214804.000			31.259			-3.473
214904.000			31.259			-3.473
215005.000			31.259			-3.473
215104.000			31.257			-3.473
215204.000			31.256			-3.473
215304.000			31.257			-3.473
215404.000			31.256			-3.473
215504.000			31.254			-3.473
215604.000			31.254			-3.473
215704.000			31.253			-3.473
215805.000			31.252			-3.472
215904.000			31.252			-3.472
216003.000			31.252			-3.472
216105.000			31.252			-3.472
216203.000			31.252			-3.472
216304.000			31.252			-3.472
216405.000			31.251			-3.472
216504.000			31.251			-3.472
216604.000			31.250			-3.472
216705.000			31.249			-3.472
216804.000			31.249			-3.472
216903.000			31.249			-3.472
217005.000			31.248			-3.472
217104.000			31.246			-3.472
217204.000			31.247			-3.472
217305.000			31.247			-3.472
217404.000			31.246			-3.472
217504.000			31.246			-3.472
217605.000			31.246			-3.472
217704.000			31.243			-3.471
217803.000			31.244			-3.472
217905.000			31.245			-3.472
218004.000			31.244			-3.472
218104.000			31.243			-3.471
218205.000			31.243			-3.471
218304.000			31.242			-3.471
218404.000			31.242			-3.471
218505.000			31.241			-3.471
218604.000			31.240			-3.471
218703.000			31.239			-3.471
218805.000			31.240			-3.471
218904.000			31.240			-3.471
219005.000			31.238			-3.471
219104.000			31.239			-3.471
219204.000			31.238			-3.471
219305.000			31.237			-3.471
219404.000			31.237			-3.471
219504.000			31.237			-3.471
219604.000			31.236			-3.471
219704.000			31.236			-3.471
219804.000			31.235			-3.471
219905.000			31.234			-3.470
220004.000			31.233			-3.470
220104.000			31.233			-3.470
220205.000			31.233			-3.470
220303.000			31.232			-3.470
220404.000			31.232			-3.470
220504.000			31.231			-3.470
220604.000			31.231			-3.470
220704.000			31.231			-3.470
220805.000			31.231			-3.470
220904.000			31.230			-3.470
221004.000			31.229			-3.470
221105.000			31.229			-3.470
221203.000			31.229			-3.470
221304.000			31.227			-3.470
221405.000			31.227			-3.470
221504.000			31.227			-3.470
221604.000			31.227			-3.470
221705.000			31.226			-3.470
221804.000			31.225			-3.469
221904.000			31.225			-3.469
222005.000			31.224			-3.469
222103.000			31.224			-3.469
222205.000			31.223			-3.469
222304.000			31.223			-3.469
222404.000			31.221			-3.469
222505.000			31.221			-3.469
222604.000			31.221			-3.469
222704.000			31.221			-3.469
222804.000			31.220			-3.469
222904.000			31.219			-3.469
223004.000			31.219			-3.469
223105.000			31.218			-3.469
223204.000			31.218			-3.469
223304.000			31.218			-3.469
223405.000			31.218			-3.469
223504.000			31.216			-3.468
223604.000			31.215			-3.468
223704.000			31.215			-3.468
223804.000			31.215			-3.468
223904.000			31.215			-3.468
224005.000			31.214			-3.468
224104.000			31.214			-3.468
224204.000			31.214			-3.468
224305.000			31.213			-3.468
224403.000			31.212			-3.468
224504.000			31.213			-3.468
224605.000			31.212			-3.468
224704.000			31.211			-3.468
224804.000			31.211			-3.468
224905.000			31.211			-3.468
225004.000			31.210			-3.468
225104.000			31.210			-3.468
225205.000			31.210			-3.468
225303.000			31.210			-3.468
225405.000			31.209			-3.468
225504.000			31.208			-3.468
225604.000			31.207			-3.467
225705.000			31.206			-3.467
225804.000			31.206			-3.467
225904.000			31.206			-3.467
226004.000			31.205			-3.467
226104.000			31.205			-3.467
226204.000			31.205			-3.467
226305.000			31.205			-3.467
226404.000			31.205			-3.467
226504.000			31.204			-3.467
226605.000			31.202			-3.467
226704.000			31.202			-3.467
226804.000			31.202			-3.467
226904.000			31.203			-3.467
227004.000			31.202			-3.467
227104.000			31.202			-3.467
227205.000			31.201			-3.467
227304.000			31.200			-3.467
227404.000			31.200			-3.467
227505.000			31.200			-3.467
227603.000			31.200			-3.467
227704.000			31.199			-3.467
227805.000			31.198			-3.466
227904.000			31.198			-3.466
228004.000			31.197			-3.466
228105.000			31.197			-3.466
228204.000			31.197			-3.466
228304.000			31.196			-3.466
228405.000			31.196			-3.466
228503.000			31.196			-3.466
228605.000			31.195			-3.466
228704.000			31.195			-3.466
228804.000			31.194			-3.466
228905.000			31.194			-3.466
229004.000			31.192			-3.466
229104.000			31.192			-3.466
229205.000			31.192			-3.466
229304.000			31.192			-3.466
229403.000			31.191			-3.466
229505.000			31.192			-3.466
229603.000			31.193			-3.466
229704.000			31.191			-3.466
229805.000			31.190			-3.466
229904.000			31.189			-3.465
230004.000			31.188			-3.465
230105.000			31.188			-3.465
230204.000			31.188			-3.465
230303.000			31.189			-3.465
230405.000			31.188			-3.465
230504.000			31.187			-3.465
230604.000			31.187			-3.465
230705.000			31.187			-3.465
230804.000			31.185			-3.465
230904.000			31.184			-3.465
231005.000			31.185			-3.465
231104.000			31.184			-3.465
231203.000			31.184			-3.465
231305.000			31.183			-3.465
231404.000			31.183			-3.465
231504.000			31.182			-3.465
231605.000			31.183			-3.465
231704.000			31.181			-3.465
231805.000			31.181			-3.465
231904.000			31.181			-3.465
232004.000			31.181			-3.465
232104.000			31.180			-3.464
232204.000			31.180			-3.464
232304.000			31.177			-3.464
232405.000			31.177			-3.464
232504.000			31.177			-3.464
232604.000			31.177			-3.464
232705.000			31.176			-3.464
232803.000			31.176			-3.464
232904.000			31.176			-3.464
233004.000			31.176			-3.464
233104.000			31.176			-3.464
233204.000			31.175			-3.464
233305.000			31.175			-3.464
233404.000			31.175			-3.464
233504.000			31.174			-3.464
233605.000			31.174			-3.464
233703.000			31.174			-3.464
233804.000			31.173			-3.464
233905.000			31.172			-3.464
234004.000			31.171			-3.463
234104.000			31.171			-3.463
234205.000			31.170			-3.463
234304.000			31.170			-3.463
234404.000			31.169			-3.463
234505.000			31.168			-3.463
234603.000			31.168			-3.463
234704.000			31.168			-3.463
234805.000			31.168			-3.463
234904.000			31.167			-3.463
235005.000			31.167			-3.463
235104.000			31.167			-3.463
235204.000			31.166			-3.463
235305.000			31.165			-3.463
235404.000			31.165			-3.463
235503.000			31.165			-3.463
235605.000			31.164			-3.463
235704.000			31.165			-3.463
235804.000			31.164			-3.463
235905.000			31.162			-3.462
236004.000			31.162			-3.462
236104.000			31.162			-3.462
236205.000			31.162			-3.462
236304.000			31.163			-3.463
236403.000			31.161			-3.462
236505.000			31.161			-3.462
236604.000			31.159			-3.462
236704.000			31.159			-3.462
236805.000			31.159			-3.462
236904.000			31.158			-3.462
237004.000			31.159			-3.462
237104.000			31.159			-3.462
237204.000			31.158			-3.462
237303.000			31.158			-3.462
237405.000			31.156			-3.462
237504.000			31.157			-3.462
237604.000			31.156			-3.462
237705.000			31.155			-3.462
237804.000			31.155			-3.462
237904.000			31.155			-3.462
238003.000			31.155			-3.462
238104.000			31.153			-3.461
238203.000			31.153			-3.461
238304.000			31.153			-3.461
238404.000			31.153			-3.461
238505.000			31.153			-3.461
238604.000			31.153			-3.461
238704.000			31.152			-3.461
238805.000			31.150			-3.461
238903.000			31.150			-3.461
239004.000			31.149			-3.461
239105.000			31.150			-3.461
239204.000			31.150			-3.461
239304.000			31.149			-3.461
239405.000			31.149			-3.461
239504.000			31.148			-3.461
239604.000			31.147			-3.461
239705.000			31.147			-3.461
239803.000			31.146			-3.461
239904.000			31.146			-3.461
240005.000			31.145			-3.461
240104.000			31.145			-3.461
240204.000			31.145			-3.461
240305.000			31.145			-3.461
240404.000			31.144			-3.460
240504.000			31.143			-3.460
240605.000			31.144			-3.460
240703.000			31.144			-3.460
240804.000			31.143			-3.460
240905.000			31.142			-3.460
241004.000			31.140			-3.460
241104.000			31.140			-3.460
241204.000			31.140			-3.460
241304.000			31.140			-3.460
241403.000			31.140			-3.460
241504.000			31.139			-3.460
241603.000			31.138			-3.460
241705.000			31.136			-3.460
241804.000			31.136			-3.460
241904.000			31.136			-3.460
242005.000			31.136			-3.460
242104.000			31.136			-3.460
242204.000			31.135			-3.459
242304.000			31.134			-3.459
242404.000			31.135			-3.459
242504.000			31.134			-3.459
242605.000			31.133			-3.459
242704.000			31.133			-3.459
242804.000			31.133			-3.459
242905.000			31.133			-3.459
243003.000			31.133			-3.459
243104.000			31.132			-3.459
243205.000			31.130			-3.459
243304.000			31.130			-3.459
243404.000			31.129			-3.459
243505.000			31.130			-3.459
243604.000			31.130			-3.459
243704.000			31.130			-3.459
243805.000			31.130			-3.459
243903.000			31.128			-3.459
244004.000			31.127			-3.459
244105.000			31.127			-3.459
244204.000			31.127			-3.459
244304.000			31.127			-3.459
244404.000			31.126			-3.458
244504.000			31.126			-3.458
244603.000			31.126			-3.458
244704.000			31.124			-3.458
244803.000			31.124			-3.458
244905.000			31.123			-3.458
245004.000			31.123			-3.458
245104.000			31.123			-3.458
245205.000			31.123			-3.458
245304.000			31.123			-3.458
245404.000			31.122			-3.458
245504.000			31.123			-3.458
245604.000			31.121			-3.458
245704.000			31.120			-3.458
245805.000			31.120			-3.458
245904.000			31.121			-3.458
246004.000			31.120			-3.458
246105.000			31.119			-3.458
246204.000			31.118			-3.458
246304.000			31.118			-3.458
246404.000			31.119			-3.458
246504.000			31.117			-3.457
246604.000			31.117			-3.458
246705.000			31.118			-3.458
246804.000			31.117			-3.457
246904.000			31.117			-3.457
247005.000			31.115			-3.457
247103.000			31.114			-3.457
247204.000			31.115			-3.457
247304.000			31.114			-3.457
247404.000			31.114			-3.457
247504.000			31.113			-3.457
247604.000			31.113			-3.457
247704.000			31.113			-3.457
247805.000			31.113			-3.457
247904.000			31.112			-3.457
248003.000			31.111			-3.457
248105.000			31.111			-3.457
248204.000			31.111			-3.457
248304.000			31.109			-3.457
248405.000			31.109			-3.457
248504.000			31.109			-3.457
248604.000			31.108			-3.456
248705.000			31.109			-3.457
248804.000			31.108			-3.456
248903.000			31.108			-3.456
249005.000			31.107			-3.456
249104.000			31.106			-3.456
249204.000			31.105			-3.456
249305.000			31.106			-3.456
249404.000			31.106			-3.456
249504.000			31.105			-3.456
249604.000			31.105			-3.456
249704.000			31.104			-3.456
249803.000			31.104			-3.456
249905.000			31.104			-3.456
250004.000			31.104			-3.456
250104.000			31.102			-3.456
250205.000			31.101			-3.456
250304.000			31.103			-3.456
250404.000			31.103			-3.456
250504.000			31.100			-3.456
250604.000			31.100			-3.456
250704.000			31.100			-3.456
250804.000			31.100			-3.456
250904.000			31.098			-3.455
251005.000			31.099			-3.455
251104.000			31.098			-3.455
251204.000			31.099			-3.455
251305.000			31.098			-3.455
251403.000			31.097			-3.455
251504.000			31.097			-3.455
251605.000			31.096			-3.455
251704.000			31.096			-3.455
251804.000			31.096			-3.455
251905.000			31.095			-3.455
252004.000			31.095			-3.455
252104.000			31.095			-3.455
252205.000			31.094			-3.455
252303.000			31.093			-3.455
252404.000			31.093			-3.455
252505.000			31.092			-3.455
252604.000			31.092			-3.455
252704.000			31.092			-3.455
252805.000			31.092			-3.455
252904.000			31.091			-3.455
253003.000			31.090			-3.454
253105.000			31.090			-3.454
253203.000			31.090			-3.454
253304.000			31.091			-3.455
253405.000			31.088			-3.454
253504.000			31.088			-3.454
253604.000			31.088			-3.454
253705.000			31.088			-3.454
253804.000			31.088			-3.454
253903.000			31.088			-3.454
254005.000			31.088			-3.454
254104.000			31.087			-3.454
254205.000			31.086			-3.454
254304.000			31.085			-3.454
254404.000			31.085			-3.454
254505.000			31.085			-3.454
254604.000			31.085			-3.454
254704.000			31.084			-3.454
254804.000			31.083			-3.454
254904.000			31.082			-3.454
255003.000			31.083			-3.454
255105.000			31.083			-3.454
255204.000			31.082			-3.454
255304.000			31.082			-3.454
255405.000			31.081			-3.453
255504.000			31.081			-3.453
255604.000			31.080			-3.453
255704.000			31.079			-3.453
255804.000			31.079			-3.453
255903.000			31.079			-3.453
256005.000			31.078			-3.453
256104.000			31.078			-3.453
256204.000			31.079			-3.453
256305.000			31.077			-3.453
256404.000			31.077			-3.453
256504.000			31.077			-3.453
256604.000			31.077			-3.453
256704.000			31.076			-3.453
256803.000			31.076			-3.453
256905.000			31.077			-3.453
257004.000			31.075			-3.453
257104.000			31.075			-3.453
257205.000			31.075			-3.453
257304.000			31.074			-3.453
257405.000			31.074			-3.453
257503.000			31.074			-3.453
257604.000			31.073			-3.453
257704.000			31.073			-3.453
257804.000			31.072			-3.452
257904.000			31.072			-3.452
258005.000			31.073			-3.453
258104.000			31.072			-3.452
258204.000			31.071			-3.452
258305.000			31.070			-3.452
258403.000			31.070			-3.452
258504.000			31.069			-3.452
258604.000			31.069			-3.452
258704.000			31.068			-3.452
258804.000			31.069			-3.452
258905.000			31.068			-3.452
259004.000			31.067			-3.452
259104.000			31.067			-3.452
259205.000			31.066			-3.452
259303.000			31.065			-3.452
259404.000			31.065			-3.452
259505.000			31.065			-3.452
259604.000			31.065			-3.452
259704.000			31.065			-3.452
259805.000			31.065			-3.452
259904.000			31.065			-3.452
260004.000			31.063			-3.451
260105.000			31.063			-3.451
260203.000			31.062			-3.451
260304.000			31.062			-3.451
260405.000			31.062			-3.451
260504.000			31.061			-3.451
260605.000			31.061			-3.451
260704.000			31.060			-3.451
260804.000			31.060			-3.451
260905.000			31.060			-3.451
261004.000			31.060			-3.451
261103.000			31.059			-3.451
261205.000			31.059			-3.451
261304.000			31.058			-3.451
261404.000			31.058			-3.451
261505.000			31.057			-3.451
261604.000			31.057			-3.451
261704.000			31.058			-3.451
261804.000			31.057			-3.451
261904.000			31.057			-3.451
262003.000			31.056			-3.451
262105.000			31.055			-3.451
262204.000			31.054			-3.450
262304.000			31.053			-3.450
262405.000			31.053			-3.450
262504.000			31.054			-3.450
262604.000			31.053			-3.450
262704.000			31.054			-3.450
262804.000			31.053			-3.450
262904.000			31.052			-3.450
263005.000			31.052			-3.450
263104.000			31.053			-3.450
263204.000			31.053			-3.450
263305.000			31.053			-3.450
263403.000			31.052			-3.450
263504.000			31.050			-3.450
263603.000			31.050			-3.450
263704.000			31.050			-3.450
263805.000			31.050			-3.450
263904.000			31.050			-3.450
264004.000			31.050			-3.450
264105.000			31.049			-3.450
264204.000			31.049			-3.450
264303.000			31.049			-3.450
264405.000			31.048			-3.450
264504.000			31.047			-3.450
264604.000			31.047			-3.450
264705.000			31.048			-3.450
264804.000			31.048			-3.450
264904.000			31.047			-3.450
265005.000			31.045			-3.449
265104.000			31.045			-3.449
265203.000			31.045			-3.449
265305.000			31.044			-3.449
265404.000			31.043			-3.449
265504.000			31.043			-3.449
265605.000			31.042			-3.449
265704.000			31.041			-3.449
265804.000			31.041			-3.449
265904.000			31.042			-3.449
266004.000			31.040			-3.449
266103.000			31.040			-3.449
266205.000			31.041			-3.449
266304.000			31.039			-3.449
266404.000			31.038			-3.449
266505.000			31.039			-3.449
266604.000			31.039			-3.449
266704.000			31.038			-3.449
266803.000			31.038			-3.449
266904.000			31.038			-3.449
267005.000			31.038			-3.449
267104.000			31.037			-3.449
267204.000			31.036			-3.448
267305.000			31.035			-3.448
267404.000			31.036			-3.448
267504.000			31.035			-3.448
267605.000			31.034			-3.448
267703.000			31.034			-3.448
267804.000			31.034			-3.448
267905.000			31.035			-3.448
268004.000			31.034			-3.448
268104.000			31.033			-3.448
268205.000			31.032			-3.448
268304.000			31.032			-3.448
268404.000			31.031			-3.448
268505.000			31.030			-3.448
268603.000			31.030			-3.448
268704.000			31.031			-3.448
268805.000			31.030			-3.448
268904.000			31.030			-3.448
269004.000			31.029			-3.448
269105.000			31.029			-3.448
269204.000			31.029			-3.448
269303.000			31.028			-3.448
269405.000			31.028			-3.448
269503.000			31.027			-3.447
269604.000			31.026			-3.447
269705.000			31.026			-3.447
269804.000			31.026			-3.447
269904.000			31.025			-3.447
270004.000			31.025			-3.447
270104.000			31.025			-3.447
270203.000			31.026			-3.447
270304.000			31.025			-3.447
270403.000			31.024			-3.447
270505.000			31.024			-3.447
270604.000			31.024			-3.447
270704.000			31.024			-3.447
270805.000			31.023			-3.447
270904.000			31.024			-3.447
271004.000			31.024			-3.447
271104.000			31.023			-3.447
271204.000			31.023			-3.447
271304.000			31.022			-3.447
271405.000			31.022			-3.447
271504.000			31.022			-3.447
271604.000			31.021			-3.447
271705.000			31.021			-3.447
271803.000			31.021			-3.447
271904.000			31.020			-3.447
272005.000			31.019			-3.447
272104.000			31.020			-3.447
272204.000			31.020			-3.447
272305.000			31.018			-3.446
272404.000			31.019			-3.447
272504.000			31.018			-3.446
272605.000			31.017			-3.446
272703.000			31.017			-3.446
272804.000			31.016			-3.446
272905.000			31.017			-3.446
273004.000			31.018			-3.446
273104.000			31.015			-3.446
273204.000			31.014			-3.446
273304.000			31.014			-3.446
273403.000			31.014			-3.446
273504.000			31.014			-3.446
273603.000			31.014			-3.446
273705.000			31.014			-3.446
273804.000			31.012			-3.446
273904.000			31.012			-3.446
274005.000			31.012			-3.446
274104.000			31.012			-3.446
274204.000			31.011			-3.446
274304.000			31.011			-3.446
274404.000			31.010			-3.446
274504.000			31.008			-3.445
274605.000			31.009			-3.445
274704.000			31.009			-3.445
274804.000			31.009			-3.445
274905.000			31.009			-3.445
275004.000			31.008			-3.445
275104.000			31.007			-3.445
275204.000			31.007			-3.445
275304.000			31.006			-3.445
275404.000			31.004			-3.445
275505.000			31.004			-3.445
275604.000			31.004			-3.445
275704.000			31.004			-3.445
275805.000			31.004			-3.445
275903.000			31.004			-3.445
276004.000			31.003			-3.445
276105.000			31.003			-3.445
276204.000			31.002			-3.445
276304.000			31.002			-3.445
276404.000			31.001			-3.445
276504.000			31.000			-3.444
276605.000			31.001			-3.445
276704.000			31.000			-3.444
276803.000			31.000			-3.444
276905.000			31.001			-3.445
277004.000			31.002			-3.445
277104.000			31.000			-3.444
277205.000			30.998			-3.444
277304.000			30.999			-3.444
277404.000			31.000			-3.444
277505.000			30.999			-3.444
277604.000			30.999			-3.444
277703.000			30.999			-3.444
277805.000			30.998			-3.444
277904.000			30.997			-3.444
278004.000			30.997			-3.444
278105.000			30.997			-3.444
278204.000			30.996			-3.444
278304.000			30.996			-3.444
278405.000			30.996			-3.444
278504.000			30.995			-3.444
278603.000			30.995			-3.444
278705.000			30.994			-3.444
278803.000			30.993			-3.444
278904.000			30.994			-3.444
279005.000			30.994			-3.444
279104.000			30.993			-3.444
279204.000			30.992			-3.444
279305.000			30.992			-3.444
279404.000			30.992			-3.444
279504.000			30.993			-3.444
279605.000			30.992			-3.444
279703.000			30.992			-3.444
279805.000			30.991			-3.443
279903.000			30.990			-3.443
280004.000			30.989			-3.443
280105.000			30.989			-3.443
280204.000			30.990			-3.443
280304.000			30.989			-3.443
280405.000			30.989			-3.443
280504.000			30.988			-3.443
280603.000			30.988			-3.443
280705.000			30.988			-3.443
280803.000			30.988			-3.443
280904.000			30.988			-3.443
281005.000			30.988			-3.443
281104.000			30.985			-3.443
281204.000			30.985			-3.443
281305.000			30.985			-3.443
281404.000			30.985			-3.443
281504.000			30.985			-3.443
281605.000			30.984			-3.443
281703.000			30.984			-3.443
281804.000			30.983			-3.443
281905.000			30.982			-3.442
282004.000			30.983			-3.443
282104.000			30.984			-3.443
282205.000			30.983			-3.443
282304.000			30.983			-3.443
282404.000			30.982			-3.442
282505.000			30.981			-3.442
282603.000			30.981			-3.442
282704.000			30.981			-3.442
282805.000			30.980			-3.442
282904.000			30.980			-3.442
283005.000			30.979			-3.442
283104.000			30.980			-3.442
283204.000			30.980			-3.442
283305.000			30.979			-3.442
283404.000			30.980			-3.442
283503.000			30.978			-3.442
283605.000			30.978			-3.442
283703.000			30.978			-3.442
283804.000			30.976			-3.442
283905.000			30.975			-3.442
284004.000			30.976			-3.442
284104.000			30.975			-3.442
284205.000			30.977			-3.442
284304.000			30.977			-3.442
284404.000			30.976			-3.442
284505.000			30.976			-3.442
284603.000			30.974			-3.442
284704.000			30.973			-3.441
284805.000			30.973			-3.441
284904.000			30.972			-3.441
285004.000			30.972			-3.441
285105.000			30.972			-3.441
285204.000			30.972			-3.441
285304.000			30.972			-3.441
285405.000			30.970			-3.441
285503.000			30.970			-3.441
285604.000			30.970			-3.441
285705.000			30.970			-3.441
285804.000			30.969			-3.441
285904.000			30.969			-3.441
286004.000			30.969			-3.441
286104.000			30.969			-3.441
286205.000			30.968			-3.441
286304.000			30.968			-3.441
286404.000			30.968			-3.441
286505.000			30.968			-3.441
286603.000			30.967			-3.441
286704.000			30.965			-3.441
286805.000			30.966			-3.441
286904.000			30.967			-3.441
287004.000			30.967			-3.441
287105.000			30.965			-3.441
287204.000			30.966			-3.441
287304.000			30.966			-3.441
287405.000			30.965			-3.441
287503.000			30.965			-3.441
287604.000			30.964			-3.440
287704.000			30.964			-3.440
287804.000			30.964			-3.440
287904.000			30.963			-3.440
288005.000			30.963			-3.440
288104.000			30.963			-3.440
288204.000			30.963			-3.440
288305.000			30.964			-3.440
288404.000			30.962			-3.440
288504.000			30.961			-3.440
288604.000			30.961			-3.440
288704.000			30.961			-3.440
288804.000			30.961			-3.440
288905.000			30.962			-3.440
289004.000			30.962			-3.440
289104.000			30.960			-3.440
289205.000			30.959			-3.440
289304.000			30.958			-3.440
289405.000			30.959			-3.440
289503.000			30.960			-3.440
289604.000			30.960			-3.440
289704.000			30.960			-3.440
289804.000			30.958			-3.440
289904.000			30.957			-3.440
290005.000			30.956			-3.440
290104.000			30.956			-3.440
290204.000			30.956			-3.440
290305.000			30.956			-3.440
290404.000			30.956			-3.440
290504.000			30.956			-3.440
290604.000			30.956			-3.440
290704.000			30.956			-3.440
290804.000			30.955			-3.439
290905.000			30.955			-3.439
291004.000			30.955			-3.439
291104.000			30.955			-3.439
291205.000			30.955			-3.439
291304.000			30.954			-3.439
291404.000			30.954			-3.439
291504.000			30.953			-3.439
291604.000			30.953			-3.439
291704.000			30.952			-3.439
291805.000			30.951			-3.439
291904.000			30.952			-3.439
292004.000			30.951			-3.439
292105.000			30.950			-3.439
292204.000			30.949			-3.439
292304.000			30.949			-3.439
292403.000			30.949			-3.439
292504.000			30.950			-3.439
292605.000			30.949			-3.439
292704.000			30.948			-3.439
292804.000			30.948			-3.439
292905.000			30.947			-3.439
293004.000			30.946			-3.438
293104.000			30.945			-3.438
293205.000			30.944			-3.438
293303.000			30.944			-3.438
293404.000			30.944			-3.438
293504.000			30.942			-3.438
293604.000			30.943			-3.438
293704.000			30.943			-3.438
293805.000			30.941			-3.438
293904.000			30.941			-3.438
294004.000			30.941			-3.438
294105.000			30.940			-3.438
294203.000			30.939			-3.438
294304.000			30.939			-3.438
294404.000			30.939			-3.438
294504.000			30.939			-3.438
294604.000			30.939			-3.438
294705.000			30.938			-3.438
294804.000			30.937			-3.437
294904.000			30.936			-3.437
295005.000			30.936			-3.437
295103.000			30.935			-3.437
295204.000			30.935			-3.437
295304.000			30.935			-3.437
295404.000			30.935			-3.437
295504.000			30.934			-3.437
295604.000			30.933			-3.437
295704.000			30.933			-3.437
295805.000			30.932			-3.437
295904.000			30.932			-3.437
296003.000			30.932			-3.437
296105.000			30.932			-3.437
296203.000			30.931			-3.437
296304.000			30.930			-3.437
296405.000			30.930			-3.437
296504.000			30.929			-3.437
296604.000			30.929			-3.437
296705.000			30.929			-3.437
296804.000			30.929			-3.437
296904.000			30.928			-3.436
297005.000			30.927			-3.436
297103.000			30.927			-3.436
297204.000			30.926			-3.436
297305.000			30.926			-3.436
297404.000			30.926			-3.436
297504.000			30.927			-3.436
297605.000			30.926			-3.436
297704.000			30.926			-3.436
297804.000			30.925			-3.436
297905.000			30.925			-3.436
298003.000			30.925			-3.436
298104.000			30.924			-3.436
298205.000			30.924			-3.436
298304.000			30.923			-3.436
298404.000			30.922			-3.436
298505.000			30.922			-3.436
298604.000			30.922			-3.436
298704.000			30.922			-3.436
298805.000			30.922			-3.436
298903.000			30.921			-3.436
299005.000			30.920			-3.436
299104.000			30.920			-3.436
299204.000			30.921			-3.436
299305.000			30.920			-3.436
299404.000			30.918			-3.435
299504.000			30.918			-3.435
299605.000			30.918			-3.435
299704.000			30.918			-3.435
299803.000			30.918			-3.435
299905.000			30.919			-3.435
